Data from groin1_Reflection__1__12-08-25-781.txt Node

Date: Thu Aug 04 12:08:25 AEST 2022
User: kathy
Spectrometer: JAZA2503
Trigger mode: 0
Integration Time (sec): 2.883200E-1
Scans to average: 10
Electric dark correction enabled: true
Nonlinearity correction enabled: true
Boxcar width: 5
XAxis mode: Wavelengths
Number of Pixels in Spectrum: 2048
>>>>>Begin Spectral Data<<<<<
189.467	38.88
189.852	81.33
190.237	-1725.55
190.622	-54.36
191.007	39.68
191.392	130.68
191.777	284.01
192.162	-118.79
192.546	-72.38
192.931	-37.9
193.316	-146.38
193.701	-121.71
194.086	34.69
194.47	108.38
194.855	241.45
195.24	5768.89
195.624	115.8
196.009	325.99
196.393	308.54
196.778	-2520.78
197.163	-81.35
197.547	-7.57
197.931	17.63
198.316	28.29
198.7	23.54
199.085	13.45
199.469	13.08
199.853	12.96
200.237	21.7
200.622	21.71
201.006	21.52
201.39	17.47
201.774	12.57
202.158	8.82
202.542	5.22
202.926	1.99
203.31	-0.7
203.694	-5.87
204.078	-10.26
204.462	-11.55
204.846	-6.15
205.23	-8.74
205.614	-9.5
205.998	-17.33
206.381	-12.05
206.765	-9.59
207.149	-5.08
207.532	3.05
207.916	6.01
208.3	9.02
208.683	12.21
209.067	14.17
209.45	19.91
209.834	21.22
210.217	26.92
210.601	28
210.984	29.49
211.367	36.06
211.751	34.06
212.134	30.45
212.517	32.51
212.901	32.94
213.284	30.59
213.667	31.56
214.05	28.86
214.433	25.78
214.816	24.99
215.199	28.29
215.582	19.16
215.965	18.67
216.348	20.12
216.731	20.01
217.114	16.57
217.497	12.56
217.88	6.21
218.262	5.49
218.645	6.26
219.028	4.01
219.411	-0.86
219.793	0.27
220.176	-0.37
220.559	-2.29
220.941	-4.82
221.324	-5.71
221.706	-4.43
222.089	-2.4
222.471	-1.28
222.853	-1.81
223.236	-1.9
223.618	-2.36
224	-0.97
224.383	-1.69
224.765	2.07
225.147	3.65
225.529	3.91
225.912	3.51
226.294	3.78
226.676	3.14
227.058	3.3
227.44	3.77
227.822	3.72
228.204	3.45
228.586	4.04
228.968	3.2
229.349	2.73
229.731	3.14
230.113	3.13
230.495	3.4
230.877	3.7
231.258	3.89
231.64	3.91
232.022	3.84
232.403	3.67
232.785	3.79
233.166	3.72
233.548	3.84
233.929	3.21
234.311	3.2
234.692	2.67
235.073	2.47
235.455	2.15
235.836	2.05
236.217	2.17
236.599	2.09
236.98	1.47
237.361	1.26
237.742	1.2
238.123	1.38
238.504	1.21
238.885	1.17
239.266	1.14
239.647	0.98
240.028	1.06
240.409	1.13
240.79	1.4
241.171	1.58
241.552	1.66
241.933	1.62
242.313	1.54
242.694	1.65
243.075	1.84
243.456	1.73
243.836	1.98
244.217	1.91
244.597	1.91
244.978	1.79
245.358	1.77
245.739	1.89
246.119	1.85
246.5	1.87
246.88	1.86
247.26	1.7
247.641	1.69
248.021	1.63
248.401	1.66
248.781	1.63
249.162	1.69
249.542	1.7
249.922	1.68
250.302	1.71
250.682	1.7
251.062	1.64
251.442	1.73
251.822	1.75
252.202	1.67
252.582	1.54
252.961	1.61
253.341	1.56
253.721	1.56
254.101	1.34
254.48	1.31
254.86	1.24
255.24	1.38
255.619	1.46
255.999	1.31
256.378	1.17
256.758	1.36
257.137	1.25
257.517	1.29
257.896	1.28
258.276	1.43
258.655	1.33
259.034	1.26
259.414	1.16
259.793	1.02
260.172	1.13
260.551	1.13
260.93	1.06
261.309	1.01
261.688	0.98
262.068	1.01
262.447	0.97
262.825	0.98
263.204	0.97
263.583	0.92
263.962	1.06
264.341	1.05
264.72	1.06
265.099	1.04
265.477	1.04
265.856	0.95
266.235	0.86
266.613	0.76
266.992	0.77
267.371	0.89
267.749	1
268.128	0.91
268.506	0.92
268.884	0.95
269.263	0.92
269.641	0.9
270.02	0.93
270.398	0.92
270.776	1.02
271.154	1.06
271.533	1.03
271.911	0.91
272.289	0.84
272.667	0.84
273.045	0.81
273.423	0.87
273.801	0.89
274.179	0.89
274.557	0.92
274.935	0.9
275.313	0.85
275.69	0.87
276.068	0.9
276.446	0.94
276.824	0.92
277.201	0.98
277.579	0.95
277.957	0.94
278.334	0.91
278.712	0.86
279.089	0.81
279.467	0.9
279.844	0.93
280.222	0.97
280.599	1.03
280.976	1.01
281.354	0.98
281.731	1.05
282.108	1.12
282.485	1.12
282.863	1.16
283.24	1.19
283.617	1.13
283.994	1.07
284.371	1.09
284.748	1.09
285.125	1.12
285.502	1.1
285.879	1.04
286.256	1.02
286.633	1.11
287.009	1.18
287.386	1.25
287.763	1.34
288.139	1.42
288.516	1.48
288.893	1.51
289.269	1.54
289.646	1.64
290.022	1.73
290.399	1.74
290.775	1.75
291.152	1.74
291.528	1.73
291.904	1.73
292.281	1.75
292.657	1.73
293.033	1.79
293.41	1.84
293.786	1.88
294.162	1.9
294.538	1.99
294.914	2.06
295.29	2.11
295.666	2.19
296.042	2.25
296.418	2.32
296.794	2.42
297.17	2.45
297.546	2.52
297.921	2.58
298.297	2.65
298.673	2.69
299.048	2.74
299.424	2.81
299.8	2.87
300.175	2.95
300.551	3.02
300.926	3.08
301.302	3.18
301.677	3.26
302.053	3.34
302.428	3.37
302.803	3.45
303.179	3.52
303.554	3.6
303.929	3.69
304.304	3.74
304.68	3.78
305.055	3.85
305.43	3.88
305.805	3.86
306.18	3.88
306.555	3.98
306.93	4.03
307.305	4.06
307.679	4.05
308.054	4.03
308.429	4.04
308.804	4.06
309.179	4.09
309.553	4.1
309.928	4.15
310.303	4.19
310.677	4.21
311.052	4.23
311.426	4.23
311.801	4.3
312.175	4.35
312.55	4.42
312.924	4.46
313.298	4.47
313.673	4.53
314.047	4.57
314.421	4.59
314.795	4.63
315.17	4.68
315.544	4.78
315.918	4.82
316.292	4.89
316.666	4.99
317.04	5.07
317.414	5.2
317.788	5.3
318.162	5.41
318.535	5.58
318.909	5.73
319.283	5.84
319.657	5.97
320.03	6.17
320.404	6.36
320.778	6.73
321.151	7.24
321.525	7.87
321.898	8.57
322.272	9.34
322.645	10.14
323.019	10.95
323.392	11.86
323.765	12.9
324.139	13.94
324.512	15.06
324.885	16.2
325.258	17.31
325.632	18.33
326.005	19.27
326.378	20.06
326.751	20.71
327.124	21.22
327.497	21.59
327.87	21.87
328.243	22.08
328.616	22.21
328.988	22.34
329.361	22.44
329.734	22.44
330.107	22.37
330.479	22.3
330.852	22.22
331.225	22.12
331.597	21.98
331.97	21.8
332.342	21.58
332.715	21.33
333.087	21.1
333.46	20.88
333.832	20.71
334.204	20.55
334.577	20.55
334.949	20.42
335.321	20.3
335.693	20.18
336.065	20.01
336.438	19.78
336.81	19.6
337.182	19.43
337.554	19.32
337.926	19.17
338.298	19
338.669	18.83
339.041	18.76
339.413	18.65
339.785	18.51
340.157	18.43
340.528	18.36
340.9	18.27
341.272	18.2
341.643	18.17
342.015	18.2
342.386	18.32
342.758	18.47
343.129	18.61
343.501	18.7
343.872	18.78
344.243	18.8
344.615	18.76
344.986	18.69
345.357	18.66
345.728	18.66
346.099	18.64
346.471	18.6
346.842	18.58
347.213	18.63
347.584	18.63
347.955	18.68
348.326	18.63
348.697	18.62
349.067	18.64
349.438	18.7
349.809	18.79
350.18	18.93
350.55	19
350.921	19.07
351.292	19.16
351.662	19.26
352.033	19.29
352.403	19.36
352.774	19.43
353.144	19.47
353.515	19.51
353.885	19.53
354.255	19.57
354.626	19.6
354.996	19.66
355.366	19.68
355.736	19.67
356.107	19.69
356.477	19.7
356.847	19.67
357.217	19.71
357.587	19.75
357.957	19.79
358.327	19.81
358.697	19.86
359.066	19.88
359.436	19.94
359.806	19.98
360.176	20.05
360.546	20.09
360.915	20.16
361.285	20.18
361.654	20.23
362.024	20.28
362.393	20.35
362.763	20.39
363.132	20.42
363.502	20.45
363.871	20.52
364.24	20.57
364.61	20.64
364.979	20.73
365.348	20.81
365.717	20.88
366.087	20.99
366.456	21.07
366.825	21.17
367.194	21.3
367.563	21.4
367.932	21.52
368.301	21.62
368.669	21.73
369.038	21.82
369.407	21.9
369.776	22.02
370.145	22.1
370.513	22.21
370.882	22.3
371.25	22.4
371.619	22.52
371.988	22.61
372.356	22.74
372.724	22.86
373.093	22.99
373.461	23.15
373.83	23.27
374.198	23.42
374.566	23.57
374.934	23.7
375.303	23.86
375.671	24
376.039	24.15
376.407	24.3
376.775	24.46
377.143	24.63
377.511	24.79
377.879	24.97
378.247	25.16
378.615	25.31
378.982	25.53
379.35	25.72
379.718	25.9
380.086	26.11
380.453	26.28
380.821	26.48
381.188	26.63
381.556	26.8
381.923	26.96
382.291	27.12
382.658	27.3
383.026	27.45
383.393	27.61
383.76	27.82
384.128	27.93
384.495	28.09
384.862	28.24
385.229	28.45
385.596	28.64
385.963	28.79
386.33	28.93
386.697	29.1
387.064	29.25
387.431	29.39
387.798	29.51
388.165	29.68
388.532	29.8
388.899	29.92
389.265	30.01
389.632	30.09
389.999	30.24
390.365	30.35
390.732	30.44
391.098	30.52
391.465	30.61
391.831	30.71
392.198	30.81
392.564	30.93
392.93	31.06
393.297	31.16
393.663	31.27
394.029	31.38
394.395	31.5
394.762	31.65
395.128	31.8
395.494	31.91
395.86	32.04
396.226	32.15
396.592	32.28
396.958	32.39
397.323	32.52
397.689	32.65
398.055	32.75
398.421	32.82
398.787	32.92
399.152	33.02
399.518	33.14
399.883	33.23
400.249	33.29
400.615	33.38
400.98	33.46
401.345	33.51
401.711	33.55
402.076	33.6
402.442	33.7
402.807	33.73
403.172	33.74
403.537	33.78
403.902	33.86
404.268	33.89
404.633	33.92
404.998	33.96
405.363	34.01
405.728	34.1
406.093	34.15
406.457	34.22
406.822	34.28
407.187	34.38
407.552	34.45
407.917	34.49
408.281	34.57
408.646	34.68
409.011	34.74
409.375	34.8
409.74	34.83
410.104	34.89
410.469	34.92
410.833	34.97
411.197	35.01
411.562	35.05
411.926	35.08
412.29	35.15
412.655	35.16
413.019	35.18
413.383	35.25
413.747	35.33
414.111	35.4
414.475	35.5
414.839	35.57
415.203	35.65
415.567	35.74
415.931	35.82
416.295	35.91
416.658	35.95
417.022	36.01
417.386	36.03
417.749	36.02
418.113	36.05
418.477	36.04
418.84	36.09
419.204	36.13
419.567	36.14
419.931	36.2
420.294	36.23
420.657	36.32
421.021	36.4
421.384	36.51
421.747	36.61
422.11	36.7
422.473	36.79
422.836	36.85
423.199	36.87
423.562	36.93
423.925	36.95
424.288	36.96
424.651	36.98
425.014	36.99
425.377	37.01
425.74	37.04
426.102	37.06
426.465	37.12
426.828	37.14
427.19	37.22
427.553	37.29
427.916	37.37
428.278	37.43
428.641	37.46
429.003	37.5
429.365	37.53
429.728	37.56
430.09	37.55
430.452	37.51
430.814	37.48
431.177	37.48
431.539	37.49
431.901	37.51
432.263	37.56
432.625	37.62
432.987	37.68
433.349	37.77
433.711	37.85
434.072	38.01
434.434	38.2
434.796	38.39
435.158	38.56
435.519	38.69
435.881	38.81
436.243	38.9
436.604	38.99
436.966	39.09
437.327	39.17
437.689	39.22
438.05	39.22
438.411	39.23
438.773	39.25
439.134	39.24
439.495	39.3
439.856	39.34
440.218	39.39
440.579	39.49
440.94	39.53
441.301	39.59
441.662	39.68
442.023	39.79
442.384	39.85
442.745	39.94
443.105	40.01
443.466	40.04
443.827	40.1
444.188	40.16
444.548	40.21
444.909	40.29
445.269	40.35
445.63	40.39
445.99	40.41
446.351	40.49
446.711	40.55
447.072	40.64
447.432	40.76
447.792	40.85
448.153	40.91
448.513	40.99
448.873	41.05
449.233	41.08
449.593	41.11
449.953	41.14
450.313	41.16
450.673	41.15
451.033	41.18
451.393	41.2
451.753	41.2
452.113	41.77
452.472	41.73
452.832	41.73
453.192	41.73
453.551	41.8
453.911	41.85
454.271	41.91
454.63	42
454.989	42.06
455.349	42.13
455.708	42.16
456.068	41.91
456.427	42
456.786	42.1
457.145	42.22
457.505	42.35
457.864	42.52
458.223	42.72
458.582	42.92
458.941	43.13
459.3	43.28
459.659	43.43
460.018	43.58
460.376	43.69
460.735	43.77
461.094	43.84
461.453	43.92
461.811	43.95
462.17	43.99
462.529	44.02
462.887	44.01
463.246	44.06
463.604	44.13
463.963	44.2
464.321	44.37
464.679	44.44
465.038	44.52
465.396	44.58
465.754	44.69
466.112	44.79
466.47	44.92
466.828	45.07
467.186	45.21
467.544	45.31
467.902	45.42
468.26	45.41
468.618	45.52
468.976	45.62
469.334	45.72
469.692	45.74
470.049	45.76
470.407	45.72
470.765	45.73
471.122	45.79
471.48	45.86
471.837	45.96
472.195	46.1
472.552	46.25
472.909	46.37
473.267	46.49
473.624	46.68
473.981	46.83
474.338	46.97
474.696	47.08
475.053	47.16
475.41	47.28
475.767	47.39
476.124	47.44
476.481	47.53
476.838	47.59
477.194	47.68
477.551	47.74
477.908	47.82
478.265	47.93
478.621	48.01
478.978	48.16
479.335	48.24
479.691	48.34
480.048	48.45
480.404	48.53
480.761	48.63
481.117	48.74
481.473	48.81
481.83	48.92
482.186	48.99
482.542	49.07
482.898	49.12
483.255	49.22
483.611	49.3
483.967	49.4
484.323	49.48
484.679	49.59
485.035	49.67
485.39	49.74
485.746	49.82
486.102	49.9
486.458	50
486.814	50.12
487.169	50.22
487.525	50.3
487.88	50.37
488.236	50.45
488.591	50.55
488.947	50.6
489.302	50.65
489.658	50.74
490.013	50.8
490.368	50.85
490.723	50.85
491.079	50.9
491.434	50.94
491.789	51.01
492.144	51.05
492.499	51.11
492.854	51.2
493.209	51.31
493.564	51.39
493.919	51.47
494.273	51.58
494.628	51.67
494.983	51.73
495.338	51.82
495.692	51.87
496.047	51.95
496.401	51.97
496.756	51.99
497.11	51.98
497.465	51.97
497.819	51.99
498.173	52.03
498.528	52.11
498.882	52.21
499.236	52.33
499.59	52.48
499.944	52.62
500.298	52.76
500.652	52.88
501.006	52.99
501.36	53.09
501.714	53.16
502.068	53.24
502.422	53.3
502.776	53.37
503.129	53.44
503.483	53.52
503.837	53.63
504.19	53.76
504.544	53.82
504.897	53.9
505.251	53.93
505.604	53.92
505.958	53.92
506.311	53.88
506.664	53.82
507.017	53.72
507.371	53.59
507.724	53.46
508.077	53.32
508.43	53.25
508.783	53.21
509.136	53.21
509.489	53.24
509.842	53.25
510.195	53.27
510.547	53.3
510.9	53.33
511.253	53.35
511.606	53.32
511.958	53.25
512.311	53.21
512.663	53.13
513.016	53.05
513.368	52.97
513.721	52.92
514.073	52.84
514.425	52.79
514.778	52.75
515.13	52.72
515.482	52.7
515.834	52.7
516.186	52.72
516.538	52.77
516.89	52.87
517.242	52.94
517.594	53.04
517.946	53.13
518.298	53.2
518.65	53.28
519.001	53.26
519.353	53.26
519.705	53.26
520.056	53.22
520.408	53.12
520.759	53.01
521.111	52.93
521.462	52.86
521.814	52.82
522.165	52.77
522.516	52.73
522.868	52.78
523.219	52.76
523.57	52.72
523.921	52.68
524.272	52.64
524.623	52.58
524.974	52.52
525.325	52.38
525.676	52.29
526.027	52.2
526.378	52.11
526.728	52.01
527.079	51.98
527.43	51.96
527.78	51.91
528.131	51.88
528.481	51.88
528.832	51.89
529.182	51.92
529.533	51.91
529.883	51.92
530.233	51.91
530.584	51.88
530.934	51.8
531.284	51.73
531.634	51.64
531.984	51.59
532.334	51.5
532.684	51.39
533.034	51.28
533.384	51.19
533.734	51.12
534.084	51.04
534.434	50.96
534.783	50.91
535.133	50.83
535.483	50.78
535.832	50.7
536.182	50.63
536.531	50.59
536.881	50.54
537.23	50.48
537.58	50.37
537.929	50.25
538.278	51.13
538.628	51
538.977	50.9
539.326	50.81
539.675	50.74
540.024	50.68
540.373	50.63
540.722	50.57
541.071	50.49
541.42	50.47
541.769	50.46
542.117	49.48
542.466	49.45
542.815	49.44
543.163	49.39
543.512	49.33
543.861	49.29
544.209	49.21
544.558	49.15
544.906	49.09
545.254	48.99
545.603	48.91
545.951	48.86
546.299	48.87
546.647	48.83
546.996	48.8
547.344	48.74
547.692	48.69
548.04	48.64
548.388	48.6
548.736	48.56
549.083	48.5
549.431	48.43
549.779	48.31
550.127	48.2
550.475	48.08
550.822	47.96
551.17	47.92
551.517	47.86
551.865	47.76
552.212	47.69
552.56	47.64
552.907	47.57
553.254	47.5
553.602	47.41
553.949	47.31
554.296	47.22
554.643	47.14
554.99	47
555.337	46.82
555.684	46.71
556.031	46.57
556.378	46.41
556.725	46.26
557.072	46.13
557.419	46.02
557.765	45.88
558.112	45.81
558.459	45.68
558.805	45.58
559.152	45.52
559.498	45.41
559.845	45.3
560.191	45.17
560.538	45.06
560.884	44.92
561.23	44.82
561.576	44.7
561.923	44.57
562.269	44.51
562.615	44.42
562.961	44.29
563.307	44.2
563.653	44.11
563.999	43.97
564.344	43.93
564.69	43.84
565.036	43.74
565.382	43.67
565.727	43.58
566.073	43.42
566.419	43.26
566.764	43.15
567.11	43.04
567.455	42.9
567.8	42.84
568.146	42.68
568.491	42.57
568.836	42.48
569.181	42.32
569.527	42.19
569.872	42.09
570.217	41.96
570.562	41.83
570.907	41.72
571.252	41.64
571.597	41.53
571.941	41.46
572.286	41.41
572.631	41.34
572.976	41.28
573.32	41.27
573.665	41.21
574.009	41.13
574.354	41.1
574.698	41.07
575.043	41.03
575.387	41.01
575.731	40.98
576.076	40.9
576.42	40.87
576.764	40.81
577.108	40.74
577.452	40.65
577.796	40.6
578.14	40.59
578.484	40.48
578.828	40.34
579.172	40.32
579.516	40.22
579.86	40.1
580.203	40.08
580.547	39.96
580.891	39.84
581.234	39.79
581.578	39.78
581.921	39.65
582.264	39.55
582.608	39.49
582.951	39.4
583.294	39.34
583.638	39.25
583.981	39.21
584.324	39.15
584.667	39.13
585.01	39.04
585.353	38.99
585.696	38.93
586.039	38.9
586.382	38.84
586.725	38.81
587.067	38.76
587.41	38.75
587.753	38.73
588.095	38.68
588.438	38.64
588.781	38.59
589.123	38.56
589.465	38.54
589.808	38.5
590.15	38.47
590.492	38.42
590.835	38.38
591.177	38.37
591.519	38.28
591.861	38.28
592.203	38.12
592.545	38.1
592.887	38.06
593.229	37.97
593.571	37.89
593.913	37.86
594.254	37.76
594.596	37.61
594.938	37.61
595.279	37.53
595.621	37.46
595.963	37.42
596.304	37.38
596.645	37.27
596.987	37.23
597.328	37.17
597.669	37.1
598.011	37.02
598.352	36.97
598.693	36.89
599.034	36.87
599.375	36.85
599.716	36.8
600.057	36.74
600.398	36.68
600.739	36.59
601.08	36.57
601.42	36.54
601.761	36.5
602.102	36.48
602.442	36.41
602.783	36.33
603.123	36.27
603.464	36.21
603.804	36.13
604.145	36.06
604.485	36.01
604.825	35.91
605.166	35.84
605.506	35.77
605.846	35.75
606.186	35.69
606.526	35.61
606.866	35.52
607.206	35.47
607.546	35.4
607.886	35.32
608.225	35.2
608.565	35.17
608.905	35.14
609.245	35.04
609.584	35
609.924	34.9
610.263	34.89
610.603	34.87
610.942	34.83
611.281	34.78
611.621	34.72
611.96	34.65
612.299	34.64
612.638	34.56
612.978	34.47
613.317	34.42
613.656	34.31
613.995	34.27
614.334	34.23
614.672	34.17
615.011	34.12
615.35	34.08
615.689	34.07
616.027	34
616.366	33.91
616.705	33.86
617.043	33.78
617.382	33.74
617.72	33.65
618.059	33.57
618.397	33.49
618.735	33.38
619.073	33.26
619.412	33.25
619.75	33.17
620.088	33.1
620.426	33.03
620.764	32.96
621.102	32.92
621.44	32.9
621.778	32.86
622.115	32.75
622.453	32.71
622.791	32.6
623.129	32.51
623.466	32.47
623.804	32.44
624.141	32.34
624.479	32.24
624.816	32.22
625.153	32.17
625.491	32.1
625.828	32.09
626.165	32.05
626.502	31.91
626.84	31.89
627.177	31.8
627.514	31.73
627.851	31.61
628.188	31.47
628.524	31.35
628.861	31.26
629.198	31.15
629.535	31.02
629.871	30.9
630.208	30.75
630.545	30.7
630.881	30.62
631.218	30.52
631.554	30.4
631.89	30.31
632.227	30.24
632.563	30.14
632.899	30.07
633.235	30
633.572	29.94
633.908	29.86
634.244	29.76
634.58	29.61
634.916	29.51
635.251	29.46
635.587	29.38
635.923	29.27
636.259	29.17
636.595	29.02
636.93	28.96
637.266	28.88
637.601	28.77
637.937	28.65
638.272	28.59
638.608	28.44
638.943	28.29
639.278	28.24
639.613	28.13
639.949	28.02
640.284	27.95
640.619	27.81
640.954	27.66
641.289	27.59
641.624	27.54
641.959	27.4
642.294	27.29
642.628	27.25
642.963	27.1
643.298	26.98
643.632	26.96
643.967	26.88
644.302	26.76
644.636	26.68
644.971	26.54
645.305	26.42
645.639	26.38
645.974	26.34
646.308	26.26
646.642	26.21
646.976	26.16
647.31	25.98
647.644	25.87
647.978	25.8
648.312	25.67
648.646	25.62
648.98	25.59
649.314	25.49
649.647	25.43
649.981	25.34
650.315	25.23
650.648	25.17
650.982	25.12
651.315	25.09
651.649	25.01
651.982	24.98
652.316	24.88
652.649	24.79
652.982	24.75
653.315	24.64
653.648	24.59
653.982	24.55
654.315	24.44
654.648	24.32
654.981	24.18
655.313	24.1
655.646	23.98
655.979	24
656.312	23.86
656.644	23.8
656.977	23.77
657.31	23.63
657.642	23.53
657.975	23.47
658.307	23.44
658.64	23.42
658.972	23.42
659.304	23.35
659.636	23.21
659.969	23.16
660.301	23.07
660.633	22.95
660.965	22.91
661.297	22.89
661.629	22.84
661.961	22.72
662.292	22.6
662.624	22.49
662.956	22.48
663.288	22.47
663.619	22.41
663.951	22.4
664.282	22.4
664.614	22.35
664.945	22.31
665.276	22.19
665.608	22.19
665.939	22.17
666.27	22.08
666.601	22
666.933	21.93
667.264	21.93
667.595	21.85
667.926	21.73
668.256	21.66
668.587	21.58
668.918	21.58
669.249	21.52
669.58	21.43
669.91	21.43
670.241	21.36
670.571	21.2
670.902	21.11
671.232	20.94
671.563	20.87
671.893	20.81
672.223	20.72
672.554	20.6
672.884	20.56
