Data from thigh1_Reflection__2__11-51-08-068.txt Node

Date: Thu Aug 04 11:51:08 AEST 2022
User: kathy
Spectrometer: JAZA2503
Trigger mode: 0
Integration Time (sec): 2.883200E-1
Scans to average: 10
Electric dark correction enabled: true
Nonlinearity correction enabled: true
Boxcar width: 5
XAxis mode: Wavelengths
Number of Pixels in Spectrum: 2048
>>>>>Begin Spectral Data<<<<<
189.467	-169.23
189.852	-437.29
190.237	-11076.24
190.622	-620
191.007	-227.8
191.392	-198.16
191.777	-197.54
192.162	-124.37
192.546	-202.56
192.931	-376.46
193.316	-225.05
193.701	-339.85
194.086	270.22
194.47	225.15
194.855	482.5
195.24	12144.24
195.624	282.31
196.009	-183.71
196.393	17.08
196.778	-924.57
197.163	-107.96
197.547	-30.47
197.931	-5.33
198.316	1.99
198.7	0.33
199.085	-2.2
199.469	-0.7
199.853	2.57
200.237	8.95
200.622	10.1
201.006	10.24
201.39	13.73
201.774	14.8
202.158	19.07
202.542	19.59
202.926	20.01
203.31	18.8
203.694	20.76
204.078	17.63
204.462	13.07
204.846	14.68
205.23	11.04
205.614	7.49
205.998	3.13
206.381	-3.32
206.765	-0.56
207.149	-2.36
207.532	-2.78
207.916	-4.75
208.3	-1.96
208.683	-1.27
209.067	-2.16
209.45	3.47
209.834	8.29
210.217	14.14
210.601	15.97
210.984	15.34
211.367	20.71
211.751	24.17
212.134	26.32
212.517	26.32
212.901	30.05
213.284	31.74
213.667	37.56
214.05	35.21
214.433	33.46
214.816	34.83
215.199	37.04
215.582	29.37
215.965	26.18
216.348	25.52
216.731	25.76
217.114	23.18
217.497	18.67
217.88	13.25
218.262	11.44
218.645	10.57
219.028	10.09
219.411	6.28
219.793	6.91
220.176	7.99
220.559	3.95
220.941	1.21
221.324	0.5
221.706	2.79
222.089	2.04
222.471	3.14
222.853	-0.23
223.236	0.15
223.618	-0.45
224	1.8
224.383	-0.08
224.765	2.88
225.147	4.29
225.529	4.79
225.912	2.66
226.294	2.16
226.676	1.6
227.058	2.3
227.44	1.55
227.822	1.54
228.204	0.89
228.586	0.85
228.968	0.3
229.349	0.1
229.731	0.28
230.113	0.15
230.495	0.27
230.877	0.39
231.258	0.64
231.64	0.93
232.022	1.01
232.403	1.13
232.785	1.76
233.166	2.2
233.548	2.36
233.929	2.34
234.311	2.87
234.692	2.68
235.073	2.8
235.455	2.86
235.836	2.58
236.217	2.63
236.599	2.27
236.98	1.73
237.361	1.29
237.742	1.02
238.123	0.86
238.504	0.7
238.885	0.49
239.266	0.36
239.647	-0.02
240.028	-0.02
240.409	-0.25
240.79	0.15
241.171	0.22
241.552	0.12
241.933	0.25
242.313	0.25
242.694	0.41
243.075	0.68
243.456	0.65
243.836	0.92
244.217	0.9
244.597	0.99
244.978	0.96
245.358	1.04
245.739	1.17
246.119	1.09
246.5	1.15
246.88	1.09
247.26	1.01
247.641	1.01
248.021	0.96
248.401	1.01
248.781	1.07
249.162	1.09
249.542	1.09
249.922	1.1
250.302	1.18
250.682	1.12
251.062	1.11
251.442	1.08
251.822	1.12
252.202	1
252.582	0.83
252.961	0.69
253.341	0.63
253.721	0.58
254.101	0.45
254.48	0.47
254.86	0.45
255.24	0.57
255.619	0.79
255.999	0.6
256.378	0.56
256.758	0.7
257.137	0.76
257.517	0.84
257.896	0.85
258.276	0.85
258.655	0.75
259.034	0.71
259.414	0.54
259.793	0.4
260.172	0.42
260.551	0.42
260.93	0.41
261.309	0.38
261.688	0.42
262.068	0.46
262.447	0.55
262.825	0.51
263.204	0.5
263.583	0.61
263.962	0.71
264.341	0.84
264.72	0.92
265.099	0.9
265.477	0.86
265.856	0.7
266.235	0.63
266.613	0.44
266.992	0.47
267.371	0.51
267.749	0.54
268.128	0.46
268.506	0.44
268.884	0.42
269.263	0.39
269.641	0.44
270.02	0.49
270.398	0.47
270.776	0.61
271.154	0.67
271.533	0.66
271.911	0.58
272.289	0.55
272.667	0.56
273.045	0.55
273.423	0.62
273.801	0.58
274.179	0.57
274.557	0.56
274.935	0.54
275.313	0.53
275.69	0.57
276.068	0.58
276.446	0.6
276.824	0.59
277.201	0.61
277.579	0.55
277.957	0.6
278.334	0.57
278.712	0.56
279.089	0.53
279.467	0.58
279.844	0.59
280.222	0.56
280.599	0.56
280.976	0.51
281.354	0.46
281.731	0.46
282.108	0.47
282.485	0.49
282.863	0.53
283.24	0.55
283.617	0.53
283.994	0.43
284.371	0.48
284.748	0.48
285.125	0.52
285.502	0.57
285.879	0.57
286.256	0.55
286.633	0.6
287.009	0.6
287.386	0.6
287.763	0.61
288.139	0.67
288.516	0.69
288.893	0.68
289.269	0.66
289.646	0.69
290.022	0.72
290.399	0.71
290.775	0.69
291.152	0.69
291.528	0.69
291.904	0.66
292.281	0.64
292.657	0.63
293.033	0.69
293.41	0.74
293.786	0.74
294.162	0.75
294.538	0.83
294.914	0.88
295.29	0.89
295.666	0.95
296.042	0.99
296.418	1.03
296.794	1.09
297.17	1.1
297.546	1.12
297.921	1.15
298.297	1.18
298.673	1.19
299.048	1.22
299.424	1.25
299.8	1.28
300.175	1.33
300.551	1.38
300.926	1.41
301.302	1.45
301.677	1.51
302.053	1.57
302.428	1.61
302.803	1.64
303.179	1.68
303.554	1.76
303.929	1.8
304.304	1.8
304.68	1.85
305.055	1.88
305.43	1.9
305.805	1.92
306.18	1.93
306.555	1.98
306.93	2.01
307.305	2.03
307.679	2.02
308.054	2.03
308.429	2.03
308.804	2.03
309.179	2.02
309.553	2.04
309.928	2.06
310.303	2.09
310.677	2.09
311.052	2.11
311.426	2.11
311.801	2.13
312.175	2.17
312.55	2.24
312.924	2.28
313.298	2.32
313.673	2.37
314.047	2.39
314.421	2.36
314.795	2.39
315.17	2.43
315.544	2.46
315.918	2.49
316.292	2.52
316.666	2.54
317.04	2.59
317.414	2.67
317.788	2.74
318.162	2.79
318.535	2.92
318.909	3.02
319.283	3.09
319.657	3.16
320.03	3.25
320.404	3.35
320.778	3.5
321.151	3.65
321.525	3.83
321.898	4.01
322.272	4.22
322.645	4.44
323.019	4.68
323.392	4.91
323.765	5.2
324.139	5.53
324.512	5.83
324.885	6.15
325.258	6.42
325.632	6.62
326.005	6.74
326.378	6.89
326.751	6.96
327.124	7.02
327.497	7.06
327.87	7.05
328.243	7.07
328.616	7.08
328.988	7.11
329.361	7.06
329.734	7.08
330.107	7.07
330.479	7.07
330.852	7
331.225	6.96
331.597	6.9
331.97	6.79
332.342	6.68
332.715	6.55
333.087	6.45
333.46	6.32
333.832	6.29
334.204	6.24
334.577	6.22
334.949	6.22
335.321	6.2
335.693	6.17
336.065	6.06
336.438	5.97
336.81	5.92
337.182	5.86
337.554	5.81
337.926	5.73
338.298	5.67
338.669	5.54
339.041	5.47
339.413	5.42
339.785	5.37
340.157	5.33
340.528	5.24
340.9	5.18
341.272	5.1
341.643	5.04
342.015	5.02
342.386	5.07
342.758	5.16
343.129	5.21
343.501	5.26
343.872	5.31
344.243	5.3
344.615	5.29
344.986	5.31
345.357	5.27
345.728	5.27
346.099	5.26
346.471	5.22
346.842	5.17
347.213	5.17
347.584	5.2
347.955	5.19
348.326	5.17
348.697	5.11
349.067	5.1
349.438	5.12
349.809	5.11
350.18	5.15
350.55	5.14
350.921	5.16
351.292	5.22
351.662	5.23
352.033	5.23
352.403	5.23
352.774	5.26
353.144	5.25
353.515	5.27
353.885	5.28
354.255	5.26
354.626	5.27
354.996	5.28
355.366	5.26
355.736	5.26
356.107	5.25
356.477	5.25
356.847	5.21
357.217	5.23
357.587	5.22
357.957	5.23
358.327	5.25
358.697	5.28
359.066	5.27
359.436	5.28
359.806	5.29
360.176	5.31
360.546	5.33
360.915	5.33
361.285	5.32
361.654	5.33
362.024	5.33
362.393	5.33
362.763	5.31
363.132	5.32
363.502	5.32
363.871	5.33
364.24	5.34
364.61	5.36
364.979	5.4
365.348	5.43
365.717	5.46
366.087	5.51
366.456	5.55
366.825	5.59
367.194	5.62
367.563	5.66
367.932	5.7
368.301	5.75
368.669	5.77
369.038	5.8
369.407	5.84
369.776	5.85
370.145	5.89
370.513	5.91
370.882	5.97
371.25	6.01
371.619	6.07
371.988	6.09
372.356	6.14
372.724	6.2
373.093	6.24
373.461	6.29
373.83	6.33
374.198	6.38
374.566	6.41
374.934	6.43
375.303	6.47
375.671	6.51
376.039	6.58
376.407	6.63
376.775	6.67
377.143	6.73
377.511	6.8
377.879	6.87
378.247	6.92
378.615	7
378.982	7.07
379.35	7.16
379.718	7.21
380.086	7.26
380.453	7.32
380.821	7.38
381.188	7.43
381.556	7.48
381.923	7.54
382.291	7.61
382.658	7.66
383.026	7.71
383.393	7.76
383.76	7.82
384.128	7.89
384.495	7.94
384.862	7.98
385.229	8.06
385.596	8.13
385.963	8.2
386.33	8.24
386.697	8.3
387.064	8.37
387.431	8.43
387.798	8.49
388.165	8.54
388.532	8.61
388.899	8.66
389.265	8.69
389.632	8.74
389.999	8.77
390.365	8.82
390.732	8.86
391.098	8.89
391.465	8.92
391.831	8.94
392.198	8.98
392.564	9
392.93	9.05
393.297	9.07
393.663	9.1
394.029	9.15
394.395	9.18
394.762	9.21
395.128	9.25
395.494	9.27
395.86	9.31
396.226	9.33
396.592	9.34
396.958	9.36
397.323	9.4
397.689	9.44
398.055	9.46
398.421	9.48
398.787	9.49
399.152	9.52
399.518	9.56
399.883	9.6
400.249	9.65
400.615	9.71
400.98	9.73
401.345	9.76
401.711	9.77
402.076	9.78
402.442	9.8
402.807	9.82
403.172	9.82
403.537	9.85
403.902	9.86
404.268	9.85
404.633	9.85
404.998	9.86
405.363	9.88
405.728	9.89
406.093	9.9
406.457	9.93
406.822	9.97
407.187	10.01
407.552	10.03
407.917	10.04
408.281	10.07
408.646	10.12
409.011	10.15
409.375	10.17
409.74	10.19
410.104	10.22
410.469	10.24
410.833	10.24
411.197	10.24
411.562	10.24
411.926	10.26
412.29	10.25
412.655	10.23
413.019	10.23
413.383	10.25
413.747	10.25
414.111	10.26
414.475	10.27
414.839	10.27
415.203	10.29
415.567	10.29
415.931	10.33
416.295	10.38
416.658	10.39
417.022	10.4
417.386	10.41
417.749	10.43
418.113	10.42
418.477	10.42
418.84	10.44
419.204	10.47
419.567	10.48
419.931	10.47
420.294	10.44
420.657	10.46
421.021	10.48
421.384	10.48
421.747	10.5
422.11	10.52
422.473	10.53
422.836	10.54
423.199	10.51
423.562	10.51
423.925	10.53
424.288	10.52
424.651	10.52
425.014	10.5
425.377	10.51
425.74	10.48
426.102	10.47
426.465	10.5
426.828	10.52
427.19	10.55
427.553	10.56
427.916	10.57
428.278	10.58
428.641	10.58
429.003	10.59
429.365	10.59
429.728	10.63
430.09	10.61
430.452	10.58
430.814	10.57
431.177	10.55
431.539	10.55
431.901	10.55
432.263	10.57
432.625	10.58
432.987	10.61
433.349	10.62
433.711	10.65
434.072	10.69
434.434	10.74
434.796	10.76
435.158	10.81
435.519	10.85
435.881	10.87
436.243	10.9
436.604	10.92
436.966	10.94
437.327	10.96
437.689	10.95
438.05	10.96
438.411	10.95
438.773	10.97
439.134	10.98
439.495	10.96
439.856	10.97
440.218	10.98
440.579	11.02
440.94	11.03
441.301	11.06
441.662	11.06
442.023	11.1
442.384	11.14
442.745	11.16
443.105	11.18
443.466	11.2
443.827	11.2
444.188	11.21
444.548	11.18
444.909	11.2
445.269	11.18
445.63	11.2
445.99	11.19
446.351	11.18
446.711	11.17
447.072	11.17
447.432	11.17
447.792	11.19
448.153	11.2
448.513	11.22
448.873	11.22
449.233	11.21
449.593	11.2
449.953	11.18
450.313	11.17
450.673	11.17
451.033	11.15
451.393	11.15
451.753	11.12
452.113	11.47
452.472	11.44
452.832	11.4
453.192	11.37
453.551	11.34
453.911	11.31
454.271	11.29
454.63	11.28
454.989	11.27
455.349	11.27
455.708	11.26
456.068	11.07
456.427	11.07
456.786	11.07
457.145	11.09
457.505	11.1
457.864	11.11
458.223	11.14
458.582	11.16
458.941	11.18
459.3	11.19
459.659	11.19
460.018	11.18
460.376	11.18
460.735	11.17
461.094	11.17
461.453	11.15
461.811	11.15
462.17	11.12
462.529	11.12
462.887	11.1
463.246	11.09
463.604	11.09
463.963	11.08
464.321	10.99
464.679	10.98
465.038	10.98
465.396	10.99
465.754	10.99
466.112	10.99
466.47	10.98
466.828	10.99
467.186	10.99
467.544	10.99
467.902	11
468.26	11.13
468.618	11.15
468.976	11.15
469.334	11.17
469.692	11.16
470.049	11.16
470.407	11.14
470.765	11.14
471.122	11.15
471.48	11.17
471.837	11.2
472.195	11.22
472.552	11.25
472.909	11.29
473.267	11.3
473.624	11.33
473.981	11.34
474.338	11.35
474.696	11.38
475.053	11.37
475.41	11.37
475.767	11.38
476.124	11.39
476.481	11.4
476.838	11.39
477.194	11.42
477.551	11.44
477.908	11.46
478.265	11.48
478.621	11.49
478.978	11.51
479.335	11.54
479.691	11.55
480.048	11.56
480.404	11.56
480.761	11.58
481.117	11.59
481.473	11.59
481.83	11.6
482.186	11.6
482.542	11.61
482.898	11.62
483.255	11.63
483.611	11.65
483.967	11.68
484.323	11.71
484.679	11.71
485.035	11.71
485.39	11.72
485.746	11.71
486.102	11.73
486.458	11.74
486.814	11.76
487.169	11.77
487.525	11.75
487.88	11.73
488.236	11.73
488.591	11.74
488.947	11.74
489.302	11.74
489.658	11.76
490.013	11.76
490.368	11.76
490.723	11.74
491.079	11.74
491.434	11.76
491.789	11.75
492.144	11.75
492.499	11.77
492.854	11.76
493.209	11.77
493.564	11.76
493.919	11.76
494.273	11.76
494.628	11.75
494.983	11.71
495.338	11.69
495.692	11.69
496.047	11.66
496.401	11.63
496.756	11.61
497.11	11.58
497.465	11.55
497.819	11.51
498.173	11.49
498.528	11.46
498.882	11.47
499.236	11.47
499.59	11.46
499.944	11.48
500.298	11.48
500.652	11.48
501.006	11.48
501.36	11.49
501.714	11.49
502.068	11.48
502.422	11.49
502.776	11.48
503.129	11.47
503.483	11.46
503.837	11.45
504.19	11.43
504.544	11.41
504.897	11.38
505.251	11.35
505.604	11.33
505.958	11.29
506.311	11.26
506.664	11.22
507.017	11.18
507.371	11.14
507.724	11.08
508.077	11.03
508.43	11
508.783	10.98
509.136	10.94
509.489	10.92
509.842	10.9
510.195	10.87
510.547	10.84
510.9	10.82
511.253	10.78
511.606	10.76
511.958	10.71
512.311	10.66
512.663	10.61
513.016	10.56
513.368	10.52
513.721	10.48
514.073	10.46
514.425	10.43
514.778	10.4
515.13	10.38
515.482	10.35
515.834	10.32
516.186	10.31
516.538	10.3
516.89	10.31
517.242	10.3
517.594	10.28
517.946	10.27
518.298	10.25
518.65	10.22
519.001	10.19
519.353	10.16
519.705	10.14
520.056	10.09
520.408	10.04
520.759	9.99
521.111	9.93
521.462	9.91
521.814	9.87
522.165	9.83
522.516	9.8
522.868	9.77
523.219	9.72
523.57	9.69
523.921	9.66
524.272	9.64
524.623	9.58
524.974	9.55
525.325	9.49
525.676	9.44
526.027	9.41
526.378	9.38
526.728	9.36
527.079	9.34
527.43	9.3
527.78	9.27
528.131	9.24
528.481	9.21
528.832	9.18
529.182	9.17
529.533	9.17
529.883	9.15
530.233	9.1
530.584	9.07
530.934	9.08
531.284	9.05
531.634	9.02
531.984	8.99
532.334	8.98
532.684	8.94
533.034	8.93
533.384	8.89
533.734	8.86
534.084	8.83
534.434	8.79
534.783	8.74
535.133	8.71
535.483	8.67
535.832	8.64
536.182	8.6
536.531	8.56
536.881	8.53
537.23	8.49
537.58	8.43
537.929	8.38
538.278	8.97
538.628	8.95
538.977	8.91
539.326	8.86
539.675	8.83
540.024	8.79
540.373	8.75
540.722	8.69
541.071	8.66
541.42	8.64
541.769	8.61
542.117	7.94
542.466	7.9
542.815	7.87
543.163	7.86
543.512	7.83
543.861	7.8
544.209	7.79
544.558	7.78
544.906	7.75
545.254	7.74
545.603	7.74
545.951	7.74
546.299	7.76
546.647	7.77
546.996	7.75
547.344	7.73
547.692	7.72
548.04	7.71
548.388	7.68
548.736	7.68
549.083	7.65
549.431	7.63
549.779	7.61
550.127	7.55
550.475	7.49
550.822	7.46
551.17	7.43
551.517	7.43
551.865	7.41
552.212	7.39
552.56	7.37
552.907	7.34
553.254	7.31
553.602	7.27
553.949	7.25
554.296	7.22
554.643	7.19
554.99	7.17
555.337	7.12
555.684	7.06
556.031	7.02
556.378	6.97
556.725	6.94
557.072	6.92
557.419	6.9
557.765	6.85
558.112	6.84
558.459	6.83
558.805	6.81
559.152	6.81
559.498	6.79
559.845	6.8
560.191	6.79
560.538	6.77
560.884	6.72
561.23	6.68
561.576	6.65
561.923	6.61
562.269	6.58
562.615	6.56
562.961	6.51
563.307	6.5
563.653	6.5
563.999	6.45
564.344	6.43
564.69	6.44
565.036	6.48
565.382	6.49
565.727	6.5
566.073	6.47
566.419	6.44
566.764	6.43
567.11	6.4
567.455	6.35
567.8	6.35
568.146	6.3
568.491	6.25
568.836	6.19
569.181	6.14
569.527	6.12
569.872	6.12
570.217	6.08
570.562	6.05
570.907	6.03
571.252	6.02
571.597	6.01
571.941	5.99
572.286	5.96
572.631	5.95
572.976	5.94
573.32	5.94
573.665	5.92
574.009	5.87
574.354	5.87
574.698	5.84
575.043	5.83
575.387	5.82
575.731	5.81
576.076	5.8
576.42	5.79
576.764	5.75
577.108	5.74
577.452	5.73
577.796	5.71
578.14	5.71
578.484	5.68
578.828	5.69
579.172	5.69
579.516	5.67
579.86	5.65
580.203	5.65
580.547	5.64
580.891	5.64
581.234	5.62
581.578	5.61
581.921	5.61
582.264	5.61
582.608	5.6
582.951	5.61
583.294	5.61
583.638	5.6
583.981	5.6
584.324	5.61
584.667	5.61
585.01	5.58
585.353	5.58
585.696	5.58
586.039	5.58
586.382	5.57
586.725	5.54
587.067	5.54
587.41	5.53
587.753	5.53
588.095	5.53
588.438	5.52
588.781	5.5
589.123	5.48
589.465	5.47
589.808	5.48
590.15	5.44
590.492	5.41
590.835	5.39
591.177	5.38
591.519	5.35
591.861	5.36
592.203	5.36
592.545	5.36
592.887	5.36
593.229	5.35
593.571	5.33
593.913	5.35
594.254	5.36
594.596	5.36
594.938	5.37
595.279	5.36
595.621	5.36
595.963	5.38
596.304	5.38
596.645	5.38
596.987	5.4
597.328	5.4
597.669	5.39
598.011	5.39
598.352	5.41
598.693	5.41
599.034	5.43
599.375	5.42
599.716	5.41
600.057	5.4
600.398	5.39
600.739	5.38
601.08	5.37
601.42	5.35
601.761	5.32
602.102	5.3
602.442	5.29
602.783	5.27
603.123	5.26
603.464	5.26
603.804	5.25
604.145	5.22
604.485	5.21
604.825	5.2
605.166	5.19
605.506	5.19
605.846	5.19
606.186	5.18
606.526	5.17
606.866	5.19
607.206	5.2
607.546	5.19
607.886	5.18
608.225	5.17
608.565	5.16
608.905	5.16
609.245	5.16
609.584	5.15
609.924	5.15
610.263	5.14
610.603	5.14
610.942	5.14
611.281	5.1
611.621	5.09
611.96	5.08
612.299	5.08
612.638	5.08
612.978	5.06
613.317	5.05
613.656	5.04
613.995	5.03
614.334	5
614.672	4.95
615.011	4.93
615.35	4.91
615.689	4.91
616.027	4.92
616.366	4.88
616.705	4.87
617.043	4.87
617.382	4.86
617.72	4.86
618.059	4.85
618.397	4.85
618.735	4.83
619.073	4.84
619.412	4.84
619.75	4.83
620.088	4.82
620.426	4.81
620.764	4.8
621.102	4.78
621.44	4.77
621.778	4.77
622.115	4.77
622.453	4.77
622.791	4.77
623.129	4.77
623.466	4.77
623.804	4.79
624.141	4.8
624.479	4.79
624.816	4.77
625.153	4.77
625.491	4.77
625.828	4.8
626.165	4.81
626.502	4.79
626.84	4.77
627.177	4.77
627.514	4.76
627.851	4.77
628.188	4.73
628.524	4.7
628.861	4.67
629.198	4.66
629.535	4.67
629.871	4.65
630.208	4.57
630.545	4.6
630.881	4.6
631.218	4.61
631.554	4.59
631.89	4.63
632.227	4.65
632.563	4.68
632.899	4.65
633.235	4.63
633.572	4.6
633.908	4.65
634.244	4.61
634.58	4.56
634.916	4.58
635.251	4.6
635.587	4.58
635.923	4.57
636.259	4.55
636.595	4.54
636.93	4.54
637.266	4.57
637.601	4.51
637.937	4.54
638.272	4.57
638.608	4.51
638.943	4.49
639.278	4.5
639.613	4.48
639.949	4.47
640.284	4.48
640.619	4.44
640.954	4.41
641.289	4.41
641.624	4.38
641.959	4.34
642.294	4.29
642.628	4.25
642.963	4.22
643.298	4.21
643.632	4.24
643.967	4.27
644.302	4.24
644.636	4.23
644.971	4.23
645.305	4.18
645.639	4.25
645.974	4.27
646.308	4.21
646.642	4.2
646.976	4.17
647.31	4.12
647.644	4.08
647.978	4.09
648.312	4.05
648.646	4.09
648.98	4.13
649.314	4.05
649.647	4.04
649.981	4.1
650.315	4.09
650.648	4.05
650.982	4.06
651.315	4.07
651.649	4.09
651.982	4.12
652.316	4.05
652.649	3.98
652.982	4.03
653.315	4.05
653.648	4.05
653.982	4.03
654.315	4.02
654.648	3.99
654.981	3.97
655.313	3.94
655.646	3.92
655.979	3.97
656.312	3.98
656.644	3.93
656.977	3.95
657.31	3.91
657.642	3.92
657.975	3.92
658.307	3.88
658.64	3.92
658.972	3.97
659.304	3.95
659.636	3.89
659.969	3.85
660.301	3.87
660.633	3.81
660.965	3.8
661.297	3.83
661.629	3.85
661.961	3.87
662.292	3.79
662.624	3.74
662.956	3.75
663.288	3.79
663.619	3.83
663.951	3.79
664.282	3.8
664.614	3.8
664.945	3.72
665.276	3.73
665.608	3.72
665.939	3.73
666.27	3.69
666.601	3.66
666.933	3.61
667.264	3.64
667.595	3.61
667.926	3.64
668.256	3.6
668.587	3.64
668.918	3.66
669.249	3.7
669.58	3.68
669.91	3.72
670.241	3.76
670.571	3.82
670.902	3.85
671.232	3.91
671.563	3.88
671.893	3.87
672.223	3.85
672.554	3.85
672.884	3.91
673.214	3.88
673.544	3.91
673.874	3.8
674.204	3.76
674.534	3.64
674.864	3.61
675.194	3.6
675.524	3.67
675.853	3.66
676.183	3.61
676.513	3.47
676.842	3.5
677.172	3.45
677.501	3.55
677.831	3.62
678.16	3.68
678.489	3.72
678.819	3.74
679.148	3.65
679.477	3.68
679.806	3.66
680.135	3.69
680.464	3.69
680.793	3.69
681.122	3.58
681.451	3.48
681.78	3.46
682.108	3.4
682.437	3.36
682.766	3.42
683.094	3.41
683.423	3.4
683.751	3.35
684.08	3.27
684.408	3.25
684.737	3.3
685.065	3.34
685.393	3.31
685.721	3.35
686.049	3.36
686.377	3.37
686.705	3.37
687.033	3.4
687.361	3.53
687.689	3.62
