Data from groin3_Reflection__0__11-49-44-092.txt Node

Date: Thu Aug 04 11:49:44 AEST 2022
User: kathy
Spectrometer: JAZA2503
Trigger mode: 0
Integration Time (sec): 2.883200E-1
Scans to average: 10
Electric dark correction enabled: true
Nonlinearity correction enabled: true
Boxcar width: 5
XAxis mode: Wavelengths
Number of Pixels in Spectrum: 2048
>>>>>Begin Spectral Data<<<<<
189.467	-232.25
189.852	-568.08
190.237	-12249.77
190.622	-724.23
191.007	-233.43
191.392	-364.83
191.777	-458.52
192.162	-75.57
192.546	-122.52
192.931	-235.64
193.316	-307.73
193.701	-447.25
194.086	362.57
194.47	215.05
194.855	402.2
195.24	4814.33
195.624	136.93
196.009	396.73
196.393	352.28
196.778	-1601.25
197.163	-102.8
197.547	-68.48
197.931	-18.12
198.316	-2.49
198.7	4.48
199.085	3.1
199.469	13.57
199.853	20.96
200.237	28.53
200.622	30.14
201.006	26.58
201.39	26.26
201.774	27.73
202.158	26.97
202.542	25.84
202.926	24.57
203.31	19.41
203.694	17.57
204.078	6.57
204.462	0.81
204.846	0.08
205.23	3.14
205.614	-0.02
205.998	-4.68
206.381	-1.1
206.765	-3.97
207.149	-5.64
207.532	2.7
207.916	1.35
208.3	10.49
208.683	15.24
209.067	16.02
209.45	19.73
209.834	23.4
210.217	29.58
210.601	28.71
210.984	27.92
211.367	32.46
211.751	35.78
212.134	37.41
212.517	32.88
212.901	33.69
213.284	34.21
213.667	35.28
214.05	36.35
214.433	34.47
214.816	36.1
215.199	42.58
215.582	36.6
215.965	30.61
216.348	25.76
216.731	27.18
217.114	25.44
217.497	21.34
217.88	18.75
218.262	15.95
218.645	13.61
219.028	9.96
219.411	4.05
219.793	7.85
220.176	10
220.559	10.76
220.941	10.79
221.324	11.35
221.706	11.85
222.089	10.68
222.471	10.59
222.853	10.28
223.236	11.94
223.618	12.15
224	12.98
224.383	10.73
224.765	11.98
225.147	11.6
225.529	11.22
225.912	11.65
226.294	10.13
226.676	9.29
227.058	7.73
227.44	6.5
227.822	5.49
228.204	4.29
228.586	4.64
228.968	3.99
229.349	3.53
229.731	3.33
230.113	2.68
230.495	2.83
230.877	2.82
231.258	3.12
231.64	3.22
232.022	3.2
232.403	3.27
232.785	3.47
233.166	3.54
233.548	3.49
233.929	3.07
234.311	3.32
234.692	3.01
235.073	2.84
235.455	2.65
235.836	2.47
236.217	2.46
236.599	2.08
236.98	1.45
237.361	1.26
237.742	1.24
238.123	1.56
238.504	1.36
238.885	1.1
239.266	1.01
239.647	0.89
240.028	1.03
240.409	1
240.79	1.33
241.171	1.53
241.552	1.55
241.933	1.62
242.313	1.63
242.694	1.73
243.075	2.15
243.456	2.1
243.836	2.35
244.217	2.3
244.597	2.4
244.978	2.35
245.358	2.32
245.739	2.35
246.119	2.18
246.5	2.1
246.88	2.01
247.26	1.81
247.641	1.78
248.021	1.66
248.401	1.68
248.781	1.64
249.162	1.66
249.542	1.65
249.922	1.63
250.302	1.71
250.682	1.6
251.062	1.65
251.442	1.63
251.822	1.7
252.202	1.69
252.582	1.65
252.961	1.72
253.341	1.78
253.721	1.83
254.101	1.71
254.48	1.7
254.86	1.77
255.24	1.79
255.619	2.03
255.999	2
256.378	1.94
256.758	1.92
257.137	1.89
257.517	1.83
257.896	1.73
258.276	1.73
258.655	1.65
259.034	1.55
259.414	1.47
259.793	1.28
260.172	1.24
260.551	1.24
260.93	1.16
261.309	1.11
261.688	1.07
262.068	1.07
262.447	1.1
262.825	1.08
263.204	1.13
263.583	1.12
263.962	1.24
264.341	1.31
264.72	1.3
265.099	1.36
265.477	1.38
265.856	1.3
266.235	1.25
266.613	1.17
266.992	1.22
267.371	1.11
267.749	1.21
268.128	1.09
268.506	1.07
268.884	1.08
269.263	1.02
269.641	0.97
270.02	0.99
270.398	0.96
270.776	1.01
271.154	0.99
271.533	1.05
271.911	0.96
272.289	0.99
272.667	0.97
273.045	0.94
273.423	0.95
273.801	0.99
274.179	0.97
274.557	0.96
274.935	0.95
275.313	0.93
275.69	0.93
276.068	0.88
276.446	0.88
276.824	0.91
277.201	0.92
277.579	0.93
277.957	0.92
278.334	0.9
278.712	0.93
279.089	0.9
279.467	0.97
279.844	0.98
280.222	1.01
280.599	1.03
280.976	0.95
281.354	0.89
281.731	0.91
282.108	0.93
282.485	0.93
282.863	0.96
283.24	0.96
283.617	0.91
283.994	0.88
284.371	0.9
284.748	0.9
285.125	1
285.502	1.07
285.879	1.09
286.256	1.12
286.633	1.18
287.009	1.23
287.386	1.26
287.763	1.33
288.139	1.41
288.516	1.42
288.893	1.45
289.269	1.41
289.646	1.46
290.022	1.47
290.399	1.48
290.775	1.5
291.152	1.47
291.528	1.49
291.904	1.46
292.281	1.43
292.657	1.46
293.033	1.49
293.41	1.57
293.786	1.61
294.162	1.65
294.538	1.71
294.914	1.77
295.29	1.84
295.666	1.95
296.042	2.01
296.418	2.1
296.794	2.22
297.17	2.28
297.546	2.35
297.921	2.41
298.297	2.49
298.673	2.55
299.048	2.63
299.424	2.71
299.8	2.78
300.175	2.9
300.551	2.98
300.926	3.04
301.302	3.13
301.677	3.21
302.053	3.32
302.428	3.34
302.803	3.43
303.179	3.54
303.554	3.64
303.929	3.72
304.304	3.8
304.68	3.88
305.055	3.99
305.43	4.06
305.805	4.12
306.18	4.18
306.555	4.31
306.93	4.36
307.305	4.35
307.679	4.39
308.054	4.41
308.429	4.42
308.804	4.47
309.179	4.47
309.553	4.51
309.928	4.57
310.303	4.6
310.677	4.62
311.052	4.67
311.426	4.71
311.801	4.74
312.175	4.8
312.55	4.86
312.924	4.89
313.298	4.94
313.673	4.99
314.047	5.03
314.421	5.04
314.795	5.1
315.17	5.15
315.544	5.22
315.918	5.32
316.292	5.38
316.666	5.47
317.04	5.6
317.414	5.72
317.788	5.85
318.162	5.99
318.535	6.18
318.909	6.35
319.283	6.49
319.657	6.69
320.03	6.86
320.404	7.08
320.778	7.49
321.151	7.98
321.525	8.53
321.898	9.12
322.272	9.76
322.645	10.44
323.019	11.19
323.392	11.94
323.765	12.89
324.139	13.9
324.512	14.92
324.885	15.94
325.258	16.9
325.632	17.85
326.005	18.62
326.378	19.28
326.751	19.82
327.124	20.21
327.497	20.5
327.87	20.72
328.243	20.96
328.616	21.14
328.988	21.22
329.361	21.28
329.734	21.25
330.107	21.19
330.479	21.15
330.852	21.09
331.225	21.01
331.597	20.87
331.97	20.68
332.342	20.45
332.715	20.26
333.087	20.03
333.46	19.83
333.832	19.74
334.204	19.62
334.577	19.56
334.949	19.43
335.321	19.37
335.693	19.27
336.065	19.09
336.438	18.91
336.81	18.73
337.182	18.57
337.554	18.38
337.926	18.17
338.298	18.02
338.669	17.86
339.041	17.76
339.413	17.68
339.785	17.6
340.157	17.55
340.528	17.46
340.9	17.37
341.272	17.27
341.643	17.21
342.015	17.22
342.386	17.29
342.758	17.45
343.129	17.67
343.501	17.88
343.872	17.99
344.243	18
344.615	18.01
344.986	17.94
345.357	17.92
345.728	17.92
346.099	17.9
346.471	17.94
346.842	17.97
347.213	18.02
347.584	18.06
347.955	18.12
348.326	18.15
348.697	18.13
349.067	18.14
349.438	18.21
349.809	18.28
350.18	18.39
350.55	18.48
350.921	18.59
351.292	18.68
351.662	18.81
352.033	18.9
352.403	18.98
352.774	19.05
353.144	19.09
353.515	19.14
353.885	19.19
354.255	19.21
354.626	19.26
354.996	19.28
355.366	19.3
355.736	19.31
356.107	19.3
356.477	19.31
356.847	19.37
357.217	19.42
357.587	19.49
357.957	19.58
358.327	19.64
358.697	19.72
359.066	19.77
359.436	19.87
359.806	19.95
360.176	20.05
360.546	20.12
360.915	20.16
361.285	20.2
361.654	20.27
362.024	20.29
362.393	20.36
362.763	20.39
363.132	20.44
363.502	20.51
363.871	20.54
364.24	20.6
364.61	20.68
364.979	20.77
365.348	20.89
365.717	20.96
366.087	21.06
366.456	21.16
366.825	21.28
367.194	21.41
367.563	21.5
367.932	21.65
368.301	21.78
368.669	21.92
369.038	22.05
369.407	22.19
369.776	22.32
370.145	22.45
370.513	22.57
370.882	22.73
371.25	22.88
371.619	23.08
371.988	23.23
372.356	23.4
372.724	23.57
373.093	23.75
373.461	23.95
373.83	24.15
374.198	24.37
374.566	24.56
374.934	24.77
375.303	24.95
375.671	25.1
376.039	25.28
376.407	25.48
376.775	25.71
377.143	25.92
377.511	26.13
377.879	26.33
378.247	26.58
378.615	26.8
378.982	27.06
379.35	27.33
379.718	27.58
380.086	27.83
380.453	28.06
380.821	28.29
381.188	28.53
381.556	28.78
381.923	29.02
382.291	29.23
382.658	29.47
383.026	29.69
383.393	29.9
383.76	30.16
384.128	30.4
384.495	30.65
384.862	30.88
385.229	31.11
385.596	31.32
385.963	31.54
386.33	31.77
386.697	32.03
387.064	32.23
387.431	32.44
387.798	32.63
388.165	32.84
388.532	33.03
388.899	33.15
389.265	33.32
389.632	33.52
389.999	33.67
390.365	33.8
390.732	33.92
391.098	34.04
391.465	34.16
391.831	34.26
392.198	34.38
392.564	34.5
392.93	34.66
393.297	34.77
393.663	34.84
394.029	34.99
394.395	35.14
394.762	35.26
395.128	35.42
395.494	35.55
395.86	35.71
396.226	35.8
396.592	35.92
396.958	36.04
397.323	36.17
397.689	36.32
398.055	36.42
398.421	36.52
398.787	36.63
399.152	36.72
399.518	36.83
399.883	36.9
400.249	37.03
400.615	37.13
400.98	37.22
401.345	37.3
401.711	37.36
402.076	37.44
402.442	37.5
402.807	37.55
403.172	37.64
403.537	37.66
403.902	37.74
404.268	37.78
404.633	37.81
404.998	37.87
405.363	37.92
405.728	37.98
406.093	38.04
406.457	38.11
406.822	38.19
407.187	38.23
407.552	38.32
407.917	38.39
408.281	38.5
408.646	38.62
409.011	38.72
409.375	38.76
409.74	38.82
410.104	38.89
410.469	38.94
410.833	38.99
411.197	39.04
411.562	39.06
411.926	39.09
412.29	39.12
412.655	39.14
413.019	39.16
413.383	39.24
413.747	39.29
414.111	39.36
414.475	39.44
414.839	39.51
415.203	39.58
415.567	39.66
415.931	39.77
416.295	39.84
416.658	39.85
417.022	39.9
417.386	39.94
417.749	39.98
418.113	40
418.477	40
418.84	40.02
419.204	40.04
419.567	40.09
419.931	40.07
420.294	40.09
420.657	40.17
421.021	40.23
421.384	40.28
421.747	40.32
422.11	40.37
422.473	40.42
422.836	40.45
423.199	40.48
423.562	40.5
423.925	40.54
424.288	40.53
424.651	40.57
425.014	40.56
425.377	40.55
425.74	40.58
426.102	40.6
426.465	40.63
426.828	40.67
427.19	40.69
427.553	40.75
427.916	40.78
428.278	40.84
428.641	40.86
429.003	40.87
429.365	40.88
429.728	40.9
430.09	40.9
430.452	40.87
430.814	40.85
431.177	40.87
431.539	40.84
431.901	40.88
432.263	40.94
432.625	40.98
432.987	41.06
433.349	41.15
433.711	41.25
434.072	41.36
434.434	41.5
434.796	41.67
435.158	41.84
435.519	41.98
435.881	42.07
436.243	42.13
436.604	42.21
436.966	42.29
437.327	42.34
437.689	42.37
438.05	42.41
438.411	42.43
438.773	42.45
439.134	42.45
439.495	42.5
439.856	42.57
440.218	42.62
440.579	42.68
440.94	42.72
441.301	42.81
441.662	42.9
442.023	43
442.384	43.04
442.745	43.09
443.105	43.14
443.466	43.18
443.827	43.21
444.188	43.27
444.548	43.3
444.909	43.34
445.269	43.39
445.63	43.42
445.99	43.44
446.351	43.5
446.711	43.52
447.072	43.58
447.432	43.64
447.792	43.67
448.153	43.69
448.513	43.71
448.873	43.74
449.233	43.74
449.593	43.71
449.953	43.72
450.313	43.72
450.673	43.69
451.033	43.65
451.393	43.64
451.753	43.64
452.113	43.97
452.472	43.91
452.832	43.86
453.192	43.82
453.551	43.8
453.911	43.77
454.271	43.81
454.63	43.87
454.989	43.93
455.349	43.96
455.708	43.93
456.068	43.75
456.427	43.78
456.786	43.81
457.145	43.87
457.505	43.94
457.864	44.03
458.223	44.13
458.582	44.22
458.941	44.3
459.3	44.35
459.659	44.41
460.018	44.47
460.376	44.48
460.735	44.49
461.094	44.49
461.453	44.49
461.811	44.45
462.17	44.4
462.529	44.39
462.887	44.33
463.246	44.32
463.604	44.33
463.963	44.31
464.321	44.41
464.679	44.43
465.038	44.44
465.396	44.46
465.754	44.5
466.112	44.54
466.47	44.55
466.828	44.61
467.186	44.67
467.544	44.73
467.902	44.79
468.26	44.74
468.618	44.78
468.976	44.81
469.334	44.86
469.692	44.85
470.049	44.82
470.407	44.78
470.765	44.78
471.122	44.77
471.48	44.8
471.837	44.86
472.195	44.95
472.552	45.07
472.909	45.17
473.267	45.25
473.624	45.37
473.981	45.43
474.338	45.54
474.696	45.61
475.053	45.67
475.41	45.74
475.767	45.82
476.124	45.87
476.481	45.91
476.838	45.95
477.194	46.02
477.551	46.04
477.908	46.1
478.265	46.14
478.621	46.23
478.978	46.3
479.335	46.36
479.691	46.45
480.048	46.52
480.404	46.57
480.761	46.64
481.117	46.7
481.473	46.76
481.83	46.83
482.186	46.87
482.542	46.9
482.898	46.98
483.255	47.02
483.611	47.04
483.967	47.08
484.323	47.15
484.679	47.19
485.035	47.24
485.39	47.3
485.746	47.33
486.102	47.38
486.458	47.43
486.814	47.46
487.169	47.53
487.525	47.55
487.88	47.58
488.236	47.59
488.591	47.64
488.947	47.63
489.302	47.65
489.658	47.68
490.013	47.69
490.368	47.69
490.723	47.66
491.079	47.62
491.434	47.63
491.789	47.64
492.144	47.64
492.499	47.61
492.854	47.63
493.209	47.63
493.564	47.65
493.919	47.68
494.273	47.67
494.628	47.69
494.983	47.71
495.338	47.71
495.692	47.68
496.047	47.68
496.401	47.65
496.756	47.6
497.11	47.54
497.465	47.42
497.819	47.37
498.173	47.35
498.528	47.34
498.882	47.37
499.236	47.42
499.59	47.49
499.944	47.53
500.298	47.57
500.652	47.63
501.006	47.67
501.36	47.71
501.714	47.71
502.068	47.7
502.422	47.69
502.776	47.65
503.129	47.62
503.483	47.57
503.837	47.56
504.19	47.56
504.544	47.51
504.897	47.45
505.251	47.39
505.604	47.28
505.958	47.2
506.311	47.11
506.664	46.97
507.017	46.82
507.371	46.68
507.724	46.5
508.077	46.34
508.43	46.19
508.783	46.1
509.136	46.01
509.489	45.98
509.842	45.91
510.195	45.84
510.547	45.8
510.9	45.76
511.253	45.69
511.606	45.62
511.958	45.51
512.311	45.41
512.663	45.27
513.016	45.16
513.368	45.05
513.721	44.95
514.073	44.85
514.425	44.77
514.778	44.67
515.13	44.59
515.482	44.5
515.834	44.45
516.186	44.43
516.538	44.41
516.89	44.41
517.242	44.41
517.594	44.4
517.946	44.4
518.298	44.39
518.65	44.39
519.001	44.35
519.353	44.32
519.705	44.23
520.056	44.13
520.408	43.98
520.759	43.85
521.111	43.72
521.462	43.62
521.814	43.55
522.165	43.44
522.516	43.34
522.868	43.26
523.219	43.16
523.57	43.06
523.921	42.96
524.272	42.91
524.623	42.81
524.974	42.69
525.325	42.56
525.676	42.42
526.027	42.3
526.378	42.17
526.728	42.07
527.079	41.97
527.43	41.89
527.78	41.79
528.131	41.73
528.481	41.63
528.832	41.6
529.182	41.52
529.533	41.43
529.883	41.39
530.233	41.29
530.584	41.22
530.934	41.13
531.284	41.02
531.634	40.94
531.984	40.83
532.334	40.73
532.684	40.57
533.034	40.46
533.384	40.37
533.734	40.26
534.084	40.16
534.434	40.02
534.783	39.97
535.133	39.86
535.483	39.75
535.832	39.62
536.182	39.51
536.531	39.44
536.881	39.32
537.23	39.22
537.58	39.09
537.929	38.98
538.278	39.78
538.628	39.6
538.977	39.49
539.326	39.37
539.675	39.26
540.024	39.14
540.373	39.04
540.722	38.96
541.071	38.87
541.42	38.78
541.769	38.72
542.117	37.73
542.466	37.66
542.815	37.59
543.163	37.5
543.512	37.44
543.861	37.39
544.209	37.34
544.558	37.23
544.906	37.15
545.254	37.06
545.603	36.98
545.951	36.91
546.299	36.86
546.647	36.83
546.996	36.79
547.344	36.7
547.692	36.65
548.04	36.56
548.388	36.5
548.736	36.43
549.083	36.4
549.431	36.31
549.779	36.19
550.127	36.07
550.475	35.94
550.822	35.81
551.17	35.71
551.517	35.62
551.865	35.54
552.212	35.45
552.56	35.36
552.907	35.19
553.254	35.11
553.602	35.01
553.949	34.94
554.296	34.82
554.643	34.74
554.99	34.64
555.337	34.51
555.684	34.37
556.031	34.27
556.378	34.17
556.725	34.1
557.072	33.99
557.419	33.92
557.765	33.81
558.112	33.74
558.459	33.63
558.805	33.54
559.152	33.47
559.498	33.36
559.845	33.27
560.191	33.13
560.538	33.01
560.884	32.9
561.23	32.81
561.576	32.69
561.923	32.56
562.269	32.5
562.615	32.38
562.961	32.28
563.307	32.25
563.653	32.21
563.999	32.14
564.344	32.1
564.69	32.05
565.036	31.97
565.382	31.94
565.727	31.87
566.073	31.78
566.419	31.72
566.764	31.63
567.11	31.52
567.455	31.38
567.8	31.32
568.146	31.22
568.491	31.11
568.836	31.03
569.181	30.94
569.527	30.87
569.872	30.79
570.217	30.72
570.562	30.64
570.907	30.55
571.252	30.49
571.597	30.42
571.941	30.33
572.286	30.27
572.631	30.26
572.976	30.19
573.32	30.18
573.665	30.12
574.009	30.09
574.354	30.05
574.698	30.01
575.043	29.99
575.387	29.96
575.731	29.9
576.076	29.85
576.42	29.84
576.764	29.75
577.108	29.73
577.452	29.69
577.796	29.65
578.14	29.62
578.484	29.52
578.828	29.47
579.172	29.45
579.516	29.36
579.86	29.33
580.203	29.3
580.547	29.21
580.891	29.12
581.234	29.08
581.578	29.03
581.921	28.97
582.264	28.9
582.608	28.86
582.951	28.8
583.294	28.77
583.638	28.7
583.981	28.7
584.324	28.68
584.667	28.64
585.01	28.6
585.353	28.56
585.696	28.51
586.039	28.5
586.382	28.49
586.725	28.4
587.067	28.38
587.41	28.32
587.753	28.31
588.095	28.29
588.438	28.27
588.781	28.25
589.123	28.2
589.465	28.19
589.808	28.15
590.15	28.13
590.492	28.06
590.835	28.05
591.177	28.02
591.519	27.97
591.861	27.94
592.203	27.93
592.545	27.95
592.887	27.83
593.229	27.79
593.571	27.76
593.913	27.75
594.254	27.7
594.596	27.68
594.938	27.67
595.279	27.63
595.621	27.59
595.963	27.58
596.304	27.54
596.645	27.51
596.987	27.5
597.328	27.45
597.669	27.42
598.011	27.4
598.352	27.39
598.693	27.31
599.034	27.28
599.375	27.23
599.716	27.22
600.057	27.21
600.398	27.18
600.739	27.13
601.08	27.11
601.42	27.09
601.761	27.08
602.102	27.06
602.442	27
602.783	26.94
603.123	26.9
603.464	26.83
603.804	26.77
604.145	26.68
604.485	26.63
604.825	26.6
605.166	26.53
605.506	26.49
605.846	26.46
606.186	26.45
606.526	26.44
606.866	26.41
607.206	26.37
607.546	26.32
607.886	26.22
608.225	26.18
608.565	26.1
608.905	26.08
609.245	25.99
609.584	25.93
609.924	25.9
610.263	25.87
610.603	25.84
610.942	25.82
611.281	25.78
611.621	25.71
611.96	25.72
612.299	25.7
612.638	25.69
612.978	25.65
613.317	25.61
613.656	25.57
613.995	25.52
614.334	25.4
614.672	25.39
615.011	25.38
615.35	25.38
615.689	25.38
616.027	25.38
616.366	25.36
616.705	25.33
617.043	25.25
617.382	25.22
617.72	25.19
618.059	25.17
618.397	25.09
618.735	25.09
619.073	25.08
619.412	25.05
619.75	24.97
620.088	24.94
620.426	24.91
620.764	24.89
621.102	24.85
621.44	24.82
621.778	24.8
622.115	24.78
622.453	24.72
622.791	24.71
623.129	24.69
623.466	24.64
623.804	24.63
624.141	24.58
624.479	24.56
624.816	24.53
625.153	24.53
625.491	24.46
625.828	24.46
626.165	24.41
626.502	24.35
626.84	24.28
627.177	24.25
627.514	24.23
627.851	24.19
628.188	24.15
628.524	24.11
628.861	24.05
629.198	23.99
629.535	23.98
629.871	23.97
630.208	23.93
630.545	23.93
630.881	23.88
631.218	23.81
631.554	23.72
631.89	23.68
632.227	23.6
632.563	23.54
632.899	23.46
633.235	23.42
633.572	23.3
633.908	23.26
634.244	23.22
634.58	23.13
634.916	23.06
635.251	23.01
635.587	22.91
635.923	22.89
636.259	22.84
636.595	22.82
636.93	22.73
637.266	22.75
637.601	22.66
637.937	22.59
638.272	22.56
638.608	22.49
638.943	22.39
639.278	22.33
639.613	22.27
639.949	22.21
640.284	22.14
640.619	22.04
640.954	21.9
641.289	21.84
641.624	21.79
641.959	21.71
642.294	21.64
642.628	21.65
642.963	21.6
643.298	21.51
643.632	21.53
643.967	21.48
644.302	21.47
644.636	21.45
644.971	21.4
645.305	21.31
645.639	21.25
645.974	21.22
646.308	21.11
646.642	21.07
646.976	21.01
647.31	20.89
647.644	20.8
647.978	20.7
648.312	20.58
648.646	20.55
648.98	20.55
649.314	20.55
649.647	20.51
649.981	20.46
650.315	20.42
650.648	20.35
650.982	20.31
651.315	20.28
651.649	20.27
651.982	20.28
652.316	20.21
652.649	20.15
652.982	20.07
653.315	20.02
653.648	20.04
653.982	20.04
654.315	20
654.648	19.92
654.981	19.86
655.313	19.87
655.646	19.85
655.979	19.87
656.312	19.78
656.644	19.74
656.977	19.72
657.31	19.62
657.642	19.52
657.975	19.46
658.307	19.41
658.64	19.38
658.972	19.34
659.304	19.31
659.636	19.2
659.969	19.2
660.301	19.19
660.633	19.13
660.965	19.12
661.297	19.1
661.629	19.1
661.961	19.06
662.292	19.03
662.624	18.96
662.956	18.87
663.288	18.88
663.619	18.87
663.951	18.83
664.282	18.81
664.614	18.76
664.945	18.72
665.276	18.62
665.608	18.61
665.939	18.56
666.27	18.5
666.601	18.47
666.933	18.38
667.264	18.3
667.595	18.18
667.926	18.15
668.256	18.12
668.587	18.07
668.918	18.12
669.249	18.1
669.58	18.06
669.91	18.01
670.241	18.05
670.571	18
670.902	18.04
671.232	18.01
671.563	17.97
671.893	17.95
