Data from groin1_Reflection__2__11-55-25-986.txt Node

Date: Thu Aug 04 11:55:25 AEST 2022
User: kathy
Spectrometer: JAZA2503
Trigger mode: 0
Integration Time (sec): 2.883200E-1
Scans to average: 10
Electric dark correction enabled: true
Nonlinearity correction enabled: true
Boxcar width: 5
XAxis mode: Wavelengths
Number of Pixels in Spectrum: 2048
>>>>>Begin Spectral Data<<<<<
189.467	-87.29
189.852	-261.97
190.237	-7132.48
190.622	-410.42
191.007	-96.54
191.392	-166.54
191.777	9.33
192.162	-54.6
192.546	-146.02
192.931	-217.82
193.316	-187.34
193.701	-158.97
194.086	147.2
194.47	137.58
194.855	177.85
195.24	-602.11
195.624	-184.46
196.009	862.76
196.393	360.41
196.778	-2736.43
197.163	-224.57
197.547	-50.79
197.931	-10.49
198.316	12.25
198.7	20.76
199.085	26.34
199.469	34.4
199.853	40.88
200.237	44.09
200.622	43.95
201.006	42.47
201.39	45.04
201.774	42.46
202.158	42.1
202.542	38.61
202.926	32.48
203.31	29.84
203.694	28.62
204.078	16.61
204.462	8
204.846	9.59
205.23	8.76
205.614	6.9
205.998	0.17
206.381	-2.43
206.765	0.65
207.149	1.21
207.532	7.69
207.916	6.95
208.3	15.56
208.683	22.31
209.067	19.86
209.45	27.18
209.834	28.78
210.217	33.04
210.601	35.18
210.984	36.75
211.367	41.77
211.751	40.01
212.134	36.95
212.517	34.34
212.901	36.26
213.284	38.75
213.667	37.51
214.05	37.66
214.433	37.01
214.816	39.31
215.199	43.85
215.582	39.96
215.965	39.52
216.348	40.2
216.731	40.96
217.114	32.98
217.497	26.94
217.88	21.95
218.262	18.15
218.645	17.1
219.028	11.11
219.411	4.8
219.793	6.2
220.176	5.53
220.559	5.26
220.941	2.41
221.324	5.74
221.706	6.2
222.089	7.65
222.471	10.09
222.853	10.12
223.236	10.77
223.618	10.12
224	10.62
224.383	8.41
224.765	9.9
225.147	10.65
225.529	10.51
225.912	10.12
226.294	9.97
226.676	7.85
227.058	6.72
227.44	5.72
227.822	5.08
228.204	4.42
228.586	4.89
228.968	4.28
229.349	4.15
229.731	3.96
230.113	3.77
230.495	3.82
230.877	4.14
231.258	4.39
231.64	4.7
232.022	4.81
232.403	5.03
232.785	5.31
233.166	5.39
233.548	5.45
233.929	5.42
234.311	5.31
234.692	4.67
235.073	4.4
235.455	4.39
235.836	3.87
236.217	3.92
236.599	3.44
236.98	2.83
237.361	2.54
237.742	2.43
238.123	2.41
238.504	2.41
238.885	2.35
239.266	2.34
239.647	2.06
240.028	2.36
240.409	2.16
240.79	2.35
241.171	2.41
241.552	2.55
241.933	2.43
242.313	2.32
242.694	2.42
243.075	2.72
243.456	2.55
243.836	2.71
244.217	2.65
244.597	2.71
244.978	2.74
245.358	2.77
245.739	2.7
246.119	2.72
246.5	2.76
246.88	2.68
247.26	2.52
247.641	2.56
248.021	2.49
248.401	2.42
248.781	2.45
249.162	2.42
249.542	2.4
249.922	2.38
250.302	2.38
250.682	2.34
251.062	2.38
251.442	2.34
251.822	2.38
252.202	2.42
252.582	2.41
252.961	2.43
253.341	2.45
253.721	2.44
254.101	2.43
254.48	2.53
254.86	2.46
255.24	2.41
255.619	2.56
255.999	2.31
256.378	2.14
256.758	2.21
257.137	2.01
257.517	1.96
257.896	1.97
258.276	1.96
258.655	1.81
259.034	1.73
259.414	1.66
259.793	1.55
260.172	1.62
260.551	1.66
260.93	1.63
261.309	1.61
261.688	1.63
262.068	1.66
262.447	1.7
262.825	1.67
263.204	1.69
263.583	1.73
263.962	1.85
264.341	1.88
264.72	1.88
265.099	1.84
265.477	1.91
265.856	1.79
266.235	1.68
266.613	1.55
266.992	1.54
267.371	1.53
267.749	1.59
268.128	1.54
268.506	1.55
268.884	1.54
269.263	1.58
269.641	1.55
270.02	1.51
270.398	1.44
270.776	1.47
271.154	1.52
271.533	1.5
271.911	1.44
272.289	1.39
272.667	1.4
273.045	1.36
273.423	1.39
273.801	1.36
274.179	1.38
274.557	1.44
274.935	1.48
275.313	1.41
275.69	1.44
276.068	1.44
276.446	1.45
276.824	1.41
277.201	1.45
277.579	1.37
277.957	1.42
278.334	1.41
278.712	1.36
279.089	1.3
279.467	1.4
279.844	1.43
280.222	1.41
280.599	1.44
280.976	1.42
281.354	1.36
281.731	1.4
282.108	1.42
282.485	1.43
282.863	1.47
283.24	1.49
283.617	1.46
283.994	1.41
284.371	1.44
284.748	1.42
285.125	1.44
285.502	1.44
285.879	1.43
286.256	1.4
286.633	1.47
287.009	1.51
287.386	1.55
287.763	1.6
288.139	1.69
288.516	1.74
288.893	1.77
289.269	1.83
289.646	1.94
290.022	1.98
290.399	2.01
290.775	2.03
291.152	2.05
291.528	2.07
291.904	2.1
292.281	2.12
292.657	2.15
293.033	2.2
293.41	2.26
293.786	2.29
294.162	2.33
294.538	2.44
294.914	2.51
295.29	2.53
295.666	2.6
296.042	2.64
296.418	2.7
296.794	2.77
297.17	2.82
297.546	2.87
297.921	2.91
298.297	2.97
298.673	2.99
299.048	3.04
299.424	3.13
299.8	3.17
300.175	3.24
300.551	3.31
300.926	3.36
301.302	3.43
301.677	3.49
302.053	3.59
302.428	3.64
302.803	3.74
303.179	3.81
303.554	3.87
303.929	3.96
304.304	4.02
304.68	4.07
305.055	4.14
305.43	4.21
305.805	4.23
306.18	4.22
306.555	4.32
306.93	4.33
307.305	4.37
307.679	4.38
308.054	4.34
308.429	4.33
308.804	4.34
309.179	4.32
309.553	4.33
309.928	4.38
310.303	4.48
310.677	4.48
311.052	4.53
311.426	4.5
311.801	4.56
312.175	4.63
312.55	4.71
312.924	4.74
313.298	4.78
313.673	4.83
314.047	4.86
314.421	4.85
314.795	4.86
315.17	4.87
315.544	4.96
315.918	5
316.292	5.06
316.666	5.14
317.04	5.23
317.414	5.36
317.788	5.44
318.162	5.54
318.535	5.64
318.909	5.78
319.283	5.88
319.657	5.97
320.03	6.12
320.404	6.26
320.778	6.52
321.151	6.88
321.525	7.31
321.898	7.81
322.272	8.3
322.645	8.84
323.019	9.37
323.392	9.9
323.765	10.56
324.139	11.22
324.512	11.9
324.885	12.64
325.258	13.35
325.632	14
326.005	14.5
326.378	14.88
326.751	15.21
327.124	15.38
327.497	15.46
327.87	15.53
328.243	15.62
328.616	15.67
328.988	15.74
329.361	15.78
329.734	15.72
330.107	15.7
330.479	15.64
330.852	15.53
331.225	15.37
331.597	15.22
331.97	15.07
332.342	14.85
332.715	14.65
333.087	14.47
333.46	14.32
333.832	14.21
334.204	14.09
334.577	14.05
334.949	13.98
335.321	13.9
335.693	13.75
336.065	13.57
336.438	13.42
336.81	13.26
337.182	13.16
337.554	13.03
337.926	12.9
338.298	12.77
338.669	12.58
339.041	12.47
339.413	12.36
339.785	12.25
340.157	12.17
340.528	12.08
340.9	11.99
341.272	11.91
341.643	11.85
342.015	11.85
342.386	11.9
342.758	12.01
343.129	12.12
343.501	12.21
343.872	12.27
344.243	12.26
344.615	12.2
344.986	12.16
345.357	12.11
345.728	12.12
346.099	12.1
346.471	12.09
346.842	12.09
347.213	12.08
347.584	12.03
347.955	12
348.326	11.91
348.697	11.83
349.067	11.75
349.438	11.75
349.809	11.77
350.18	11.85
350.55	11.9
350.921	11.94
351.292	12.02
351.662	12.07
352.033	12.12
352.403	12.16
352.774	12.2
353.144	12.18
353.515	12.2
353.885	12.2
354.255	12.16
354.626	12.13
354.996	12.14
355.366	12.13
355.736	12.12
356.107	12.1
356.477	12.09
356.847	12.09
357.217	12.14
357.587	12.16
357.957	12.18
358.327	12.22
358.697	12.25
359.066	12.26
359.436	12.29
359.806	12.32
360.176	12.37
360.546	12.4
360.915	12.4
361.285	12.38
361.654	12.41
362.024	12.44
362.393	12.47
362.763	12.51
363.132	12.54
363.502	12.56
363.871	12.58
364.24	12.62
364.61	12.68
364.979	12.74
365.348	12.81
365.717	12.86
366.087	12.93
366.456	13
366.825	13.05
367.194	13.13
367.563	13.19
367.932	13.26
368.301	13.33
368.669	13.4
369.038	13.47
369.407	13.57
369.776	13.62
370.145	13.71
370.513	13.76
370.882	13.86
371.25	13.94
371.619	14.09
371.988	14.2
372.356	14.31
372.724	14.43
373.093	14.57
373.461	14.68
373.83	14.82
374.198	14.92
374.566	15.06
374.934	15.16
375.303	15.28
375.671	15.34
376.039	15.45
376.407	15.58
376.775	15.71
377.143	15.8
377.511	15.92
377.879	16.07
378.247	16.24
378.615	16.39
378.982	16.58
379.35	16.77
379.718	16.95
380.086	17.11
380.453	17.25
380.821	17.41
381.188	17.58
381.556	17.74
381.923	17.9
382.291	18.03
382.658	18.17
383.026	18.29
383.393	18.42
383.76	18.59
384.128	18.73
384.495	18.9
384.862	19.05
385.229	19.19
385.596	19.35
385.963	19.5
386.33	19.62
386.697	19.75
387.064	19.92
387.431	20.06
387.798	20.19
388.165	20.33
388.532	20.44
388.899	20.53
389.265	20.65
389.632	20.77
389.999	20.88
390.365	21
390.732	21.11
391.098	21.19
391.465	21.31
391.831	21.4
392.198	21.5
392.564	21.61
392.93	21.72
393.297	21.8
393.663	21.88
394.029	21.95
394.395	22.04
394.762	22.15
395.128	22.24
395.494	22.31
395.86	22.42
396.226	22.49
396.592	22.55
396.958	22.63
397.323	22.7
397.689	22.81
398.055	22.91
398.421	22.98
398.787	23.05
399.152	23.13
399.518	23.23
399.883	23.29
400.249	23.37
400.615	23.46
400.98	23.54
401.345	23.61
401.711	23.65
402.076	23.73
402.442	23.79
402.807	23.83
403.172	23.87
403.537	23.89
403.902	23.91
404.268	23.94
404.633	23.98
404.998	24.02
405.363	24.07
405.728	24.13
406.093	24.16
406.457	24.2
406.822	24.23
407.187	24.29
407.552	24.35
407.917	24.43
408.281	24.51
408.646	24.59
409.011	24.65
409.375	24.69
409.74	24.73
410.104	24.78
410.469	24.84
410.833	24.91
411.197	24.96
411.562	25
411.926	25.03
412.29	25.07
412.655	25.11
413.019	25.13
413.383	25.2
413.747	25.28
414.111	25.34
414.475	25.42
414.839	25.49
415.203	25.58
415.567	25.62
415.931	25.71
416.295	25.78
416.658	25.82
417.022	25.87
417.386	25.91
417.749	25.92
418.113	25.96
418.477	25.95
418.84	26
419.204	26.02
419.567	26.05
419.931	26.07
420.294	26.1
420.657	26.16
421.021	26.23
421.384	26.31
421.747	26.37
422.11	26.44
422.473	26.51
422.836	26.53
423.199	26.55
423.562	26.6
423.925	26.62
424.288	26.63
424.651	26.66
425.014	26.66
425.377	26.67
425.74	26.69
426.102	26.69
426.465	26.72
426.828	26.76
427.19	26.82
427.553	26.88
427.916	26.93
428.278	26.98
428.641	27.02
429.003	27.06
429.365	27.08
429.728	27.15
430.09	27.17
430.452	27.18
430.814	27.2
431.177	27.24
431.539	27.26
431.901	27.29
432.263	27.35
432.625	27.38
432.987	27.45
433.349	27.53
433.711	27.59
434.072	27.69
434.434	27.83
434.796	27.93
435.158	28.06
435.519	28.17
435.881	28.3
436.243	28.39
436.604	28.49
436.966	28.61
437.327	28.69
437.689	28.75
438.05	28.83
438.411	28.87
438.773	28.98
439.134	29.03
439.495	29.1
439.856	29.16
440.218	29.26
440.579	29.35
440.94	29.41
441.301	29.54
441.662	29.64
442.023	29.75
442.384	29.86
442.745	29.95
443.105	30.04
443.466	30.12
443.827	30.21
444.188	30.28
444.548	30.35
444.909	30.43
445.269	30.48
445.63	30.58
445.99	30.62
446.351	30.67
446.711	30.71
447.072	30.77
447.432	30.86
447.792	30.93
448.153	31
448.513	31.1
448.873	31.19
449.233	31.21
449.593	31.26
449.953	31.32
450.313	31.37
450.673	31.42
451.033	31.47
451.393	31.52
451.753	31.55
452.113	31.97
452.472	31.99
452.832	32
453.192	32.04
453.551	32.07
453.911	32.12
454.271	32.18
454.63	32.25
454.989	32.31
455.349	32.36
455.708	32.4
456.068	32.22
456.427	32.28
456.786	32.35
457.145	32.45
457.505	32.56
457.864	32.69
458.223	32.85
458.582	33.02
458.941	33.19
459.3	33.32
459.659	33.44
460.018	33.56
460.376	33.65
460.735	33.73
461.094	33.82
461.453	33.91
461.811	33.97
462.17	34.04
462.529	34.1
462.887	34.14
463.246	34.2
463.604	34.29
463.963	34.4
464.321	34.4
464.679	34.49
465.038	34.6
465.396	34.7
465.754	34.82
466.112	34.93
466.47	35.06
466.828	35.25
467.186	35.44
467.544	35.61
467.902	35.75
468.26	36.06
468.618	36.24
468.976	36.39
469.334	36.54
469.692	36.68
470.049	36.79
470.407	36.86
470.765	36.94
471.122	37.05
471.48	37.2
471.837	37.38
472.195	37.55
472.552	37.76
472.909	37.96
473.267	38.17
473.624	38.39
473.981	38.59
474.338	38.8
474.696	39.02
475.053	39.2
475.41	39.42
475.767	39.61
476.124	39.81
476.481	40.01
476.838	40.17
477.194	40.34
477.551	40.52
477.908	40.74
478.265	40.94
478.621	41.13
478.978	41.34
479.335	41.54
479.691	41.76
480.048	41.99
480.404	42.17
480.761	42.41
481.117	42.63
481.473	42.84
481.83	43
482.186	43.2
482.542	43.41
482.898	43.63
483.255	43.83
483.611	44.01
483.967	44.2
484.323	44.42
484.679	44.6
485.035	44.81
485.39	45
485.746	45.22
486.102	45.42
486.458	45.63
486.814	45.83
487.169	46.04
487.525	46.25
487.88	46.45
488.236	46.65
488.591	46.85
488.947	47.01
489.302	47.19
489.658	47.39
490.013	47.57
490.368	47.7
490.723	47.84
491.079	47.95
491.434	48.09
491.789	48.23
492.144	48.37
492.499	48.54
492.854	48.7
493.209	48.87
493.564	49.02
493.919	49.21
494.273	49.4
494.628	49.58
494.983	49.76
495.338	49.94
495.692	50.09
496.047	50.24
496.401	50.37
496.756	50.5
497.11	50.62
497.465	50.71
497.819	50.81
498.173	50.94
498.528	51.1
498.882	51.3
499.236	51.49
499.59	51.71
499.944	51.92
500.298	52.1
500.652	52.28
501.006	52.43
501.36	52.58
501.714	52.68
502.068	52.78
502.422	52.85
502.776	52.93
503.129	53.05
503.483	53.19
503.837	53.32
504.19	53.47
504.544	53.58
504.897	53.65
505.251	53.73
505.604	53.8
505.958	53.85
506.311	53.92
506.664	53.92
507.017	53.87
507.371	53.81
507.724	53.73
508.077	53.66
508.43	53.64
508.783	53.67
509.136	53.72
509.489	53.81
509.842	53.87
510.195	53.91
510.547	53.97
510.9	54.05
511.253	54.11
511.606	54.18
511.958	54.19
512.311	54.22
512.663	54.22
513.016	54.2
513.368	54.19
513.721	54.17
514.073	54.17
514.425	54.18
514.778	54.18
515.13	54.19
515.482	54.2
515.834	54.24
516.186	54.29
516.538	54.36
516.89	54.46
517.242	54.55
517.594	54.67
517.946	54.75
518.298	54.85
518.65	54.91
519.001	54.97
519.353	54.98
519.705	55
520.056	54.98
520.408	54.9
520.759	54.83
521.111	54.78
521.462	54.74
521.814	54.78
522.165	54.8
522.516	54.82
522.868	54.82
523.219	54.87
523.57	54.85
523.921	54.87
524.272	54.9
524.623	54.86
524.974	54.84
525.325	54.76
525.676	54.65
526.027	54.59
526.378	54.53
526.728	54.5
527.079	54.43
527.43	54.46
527.78	54.46
528.131	54.44
528.481	54.45
528.832	54.48
529.182	54.52
529.533	54.57
529.883	54.6
530.233	54.61
530.584	54.57
530.934	54.58
531.284	54.51
531.634	54.44
531.984	54.44
532.334	54.39
532.684	54.32
533.034	54.26
533.384	54.23
533.734	54.16
534.084	54.08
534.434	54.05
534.783	54.04
535.133	53.97
535.483	53.93
535.832	53.88
536.182	53.84
536.531	53.84
536.881	53.8
537.23	53.71
537.58	53.63
537.929	53.53
538.278	54
538.628	53.86
538.977	53.84
539.326	53.82
539.675	53.76
540.024	53.7
540.373	53.62
540.722	53.54
541.071	53.49
541.42	53.45
541.769	53.47
542.117	52.88
542.466	52.84
542.815	52.78
543.163	52.68
543.512	52.63
543.861	52.6
544.209	52.56
544.558	52.5
544.906	52.43
545.254	52.35
545.603	52.27
545.951	52.24
546.299	52.26
546.647	52.25
546.996	52.24
547.344	52.21
547.692	52.16
548.04	52.11
548.388	52.1
548.736	52.1
549.083	52.09
549.431	52.06
549.779	51.99
550.127	51.9
550.475	51.83
550.822	51.74
551.17	51.66
551.517	51.59
551.865	51.52
552.212	51.47
552.56	51.4
552.907	51.29
553.254	51.18
553.602	51.07
553.949	50.99
554.296	50.85
554.643	50.74
554.99	50.65
555.337	50.53
555.684	50.39
556.031	50.19
556.378	50.08
556.725	49.98
557.072	49.87
557.419	49.78
557.765	49.7
558.112	49.65
558.459	49.54
558.805	49.43
559.152	49.32
559.498	49.23
559.845	49.16
560.191	49.03
560.538	48.9
560.884	48.77
561.23	48.66
561.576	48.5
561.923	48.33
562.269	48.24
562.615	48.17
562.961	48.11
563.307	48.04
563.653	47.98
563.999	47.86
564.344	47.81
564.69	47.76
565.036	47.72
565.382	47.64
565.727	47.59
566.073	47.49
566.419	47.3
566.764	47.19
567.11	47.04
567.455	46.93
567.8	46.86
568.146	46.69
568.491	46.58
568.836	46.45
569.181	46.31
569.527	46.19
569.872	46.11
570.217	46.02
570.562	45.89
570.907	45.78
571.252	45.69
571.597	45.6
571.941	45.5
572.286	45.37
572.631	45.35
572.976	45.26
573.32	45.24
573.665	45.21
574.009	45.14
574.354	45.11
574.698	44.95
575.043	44.96
575.387	44.94
575.731	44.87
576.076	44.79
576.42	44.76
576.764	44.68
577.108	44.61
577.452	44.54
577.796	44.46
578.14	44.38
578.484	44.3
578.828	44.24
579.172	44.18
579.516	44.09
579.86	44
580.203	43.98
580.547	43.83
580.891	43.75
581.234	43.64
581.578	43.6
581.921	43.46
582.264	43.35
582.608	43.35
582.951	43.29
583.294	43.22
583.638	43.19
583.981	43.09
584.324	43.03
584.667	43.02
585.01	42.91
585.353	42.88
585.696	42.82
586.039	42.78
586.382	42.69
586.725	42.66
587.067	42.62
587.41	42.61
587.753	42.58
588.095	42.53
588.438	42.51
588.781	42.45
589.123	42.39
589.465	42.34
589.808	42.29
590.15	42.24
590.492	42.21
590.835	42.14
591.177	42.11
591.519	42.01
591.861	41.96
592.203	41.9
592.545	41.86
592.887	41.8
593.229	41.71
593.571	41.64
593.913	41.58
594.254	41.51
594.596	41.44
594.938	41.37
595.279	41.32
595.621	41.25
595.963	41.2
596.304	41.15
596.645	41.1
596.987	41.08
597.328	40.96
597.669	40.93
598.011	40.82
598.352	40.79
598.693	40.76
599.034	40.69
599.375	40.6
599.716	40.58
600.057	40.49
600.398	40.47
600.739	40.4
601.08	40.34
601.42	40.25
601.761	40.23
602.102	40.17
602.442	40.15
602.783	40.01
603.123	39.97
603.464	39.84
603.804	39.81
604.145	39.8
604.485	39.6
604.825	39.52
605.166	39.4
605.506	39.38
605.846	39.29
606.186	39.25
606.526	39.12
606.866	39.02
607.206	38.93
607.546	38.87
607.886	38.73
608.225	38.62
608.565	38.59
608.905	38.5
609.245	38.46
609.584	38.33
609.924	38.25
610.263	38.23
610.603	38.17
610.942	38.07
611.281	38.02
611.621	37.99
611.96	37.91
612.299	37.9
612.638	37.8
612.978	37.75
613.317	37.61
613.656	37.58
613.995	37.52
614.334	37.5
614.672	37.34
615.011	37.28
615.35	37.21
615.689	37.1
616.027	37.08
616.366	37
616.705	36.93
617.043	36.84
617.382	36.8
617.72	36.68
618.059	36.62
618.397	36.54
618.735	36.47
619.073	36.41
619.412	36.35
619.75	36.3
620.088	36.22
620.426	36.18
620.764	36.11
621.102	36.02
621.44	35.94
621.778	35.89
622.115	35.81
622.453	35.78
622.791	35.69
623.129	35.66
623.466	35.58
623.804	35.51
624.141	35.43
624.479	35.39
624.816	35.27
625.153	35.25
625.491	35.21
625.828	35.1
626.165	35.09
626.502	34.94
626.84	34.91
627.177	34.83
627.514	34.73
627.851	34.63
628.188	34.54
628.524	34.43
628.861	34.33
629.198	34.21
629.535	34.15
629.871	34
630.208	33.93
630.545	33.87
630.881	33.7
631.218	33.59
631.554	33.45
631.89	33.34
632.227	33.19
632.563	33.09
632.899	32.94
633.235	32.75
633.572	32.62
633.908	32.46
634.244	32.3
634.58	32.15
634.916	32.02
635.251	31.86
635.587	31.73
635.923	31.66
636.259	31.5
636.595	31.41
636.93	31.36
637.266	31.27
637.601	31.14
637.937	30.98
638.272	30.95
638.608	30.83
638.943	30.73
639.278	30.62
639.613	30.44
639.949	30.33
640.284	30.25
640.619	30.13
640.954	29.98
641.289	29.89
641.624	29.83
641.959	29.61
642.294	29.45
642.628	29.32
642.963	29.21
643.298	29.16
643.632	29.11
643.967	28.97
644.302	28.78
644.636	28.73
644.971	28.61
645.305	28.47
645.639	28.42
645.974	28.32
646.308	28.22
646.642	28.14
646.976	27.99
647.31	27.86
647.644	27.72
647.978	27.65
648.312	27.47
648.646	27.41
648.98	27.37
649.314	27.25
649.647	27.18
649.981	27.13
650.315	27.03
650.648	26.95
650.982	26.81
651.315	26.78
651.649	26.71
651.982	26.69
652.316	26.58
652.649	26.48
652.982	26.42
653.315	26.32
653.648	26.28
653.982	26.18
654.315	26.11
654.648	25.98
654.981	25.85
655.313	25.8
655.646	25.72
655.979	25.68
656.312	25.61
656.644	25.59
656.977	25.53
657.31	25.36
657.642	25.3
657.975	25.13
658.307	25.1
658.64	25.05
658.972	25
659.304	24.89
659.636	24.78
659.969	24.64
660.301	24.53
660.633	24.42
660.965	24.37
661.297	24.29
661.629	24.34
661.961	24.25
662.292	24.13
662.624	24.01
662.956	23.97
663.288	23.92
663.619	23.88
663.951	23.78
664.282	23.73
664.614	23.66
664.945	23.58
665.276	23.47
665.608	23.43
665.939	23.36
666.27	23.27
666.601	23.12
666.933	22.98
667.264	22.91
667.595	22.87
667.926	22.8
668.256	22.72
668.587	22.65
668.918	22.59
669.249	22.54
669.58	22.47
669.91	22.43
670.241	22.37
670.571	22.37
670.902	22.35
671.232	22.26
671.563	22.22
671.893	22.19
672.223	22.11
672.554	22.01
672.884	21.9
