Data from thigh1_Reflection__1__11-51-05-068.txt Node

Date: Thu Aug 04 11:51:05 AEST 2022
User: kathy
Spectrometer: JAZA2503
Trigger mode: 0
Integration Time (sec): 2.883200E-1
Scans to average: 10
Electric dark correction enabled: true
Nonlinearity correction enabled: true
Boxcar width: 5
XAxis mode: Wavelengths
Number of Pixels in Spectrum: 2048
>>>>>Begin Spectral Data<<<<<
189.467	-43.54
189.852	-105.75
190.237	-3895.13
190.622	-180.17
191.007	-46.71
191.392	-76.18
191.777	-163.7
192.162	28.3
192.546	5.11
192.931	-91.02
193.316	-168.11
193.701	-95.01
194.086	92.8
194.47	133.56
194.855	264.23
195.24	4635.81
195.624	257.78
196.009	37.65
196.393	241.02
196.778	-355.6
197.163	8.28
197.547	-9.1
197.931	6.63
198.316	22.07
198.7	23.44
199.085	14.39
199.469	18.73
199.853	15.45
200.237	21.84
200.622	24.9
201.006	11.86
201.39	7.91
201.774	5.71
202.158	8.07
202.542	1.4
202.926	-10.32
203.31	-13.19
203.694	-18.19
204.078	-28.82
204.462	-28.03
204.846	-21.08
205.23	-18.36
205.614	-17.57
205.998	-20.65
206.381	-16.6
206.765	-12.4
207.149	-11.22
207.532	-3.9
207.916	1.43
208.3	7.42
208.683	8.16
209.067	8.22
209.45	13.76
209.834	14.06
210.217	17.2
210.601	15.17
210.984	15.4
211.367	19.77
211.751	19.13
212.134	16.59
212.517	19.32
212.901	21.2
213.284	19.12
213.667	20.82
214.05	22.62
214.433	20.32
214.816	22.97
215.199	26.01
215.582	22.81
215.965	19.87
216.348	18.8
216.731	18.91
217.114	12.8
217.497	8.46
217.88	2.15
218.262	-1.74
218.645	-0.56
219.028	-3.38
219.411	-8.62
219.793	-7.13
220.176	-4.75
220.559	-4.5
220.941	-6.97
221.324	-5.24
221.706	-2.22
222.089	1.09
222.471	3.87
222.853	3.01
223.236	3.73
223.618	3.51
224	3.43
224.383	3.11
224.765	5.37
225.147	6.26
225.529	6.33
225.912	5.49
226.294	5.12
226.676	3.67
227.058	3.46
227.44	3.08
227.822	3.22
228.204	3.49
228.586	2.9
228.968	2.07
229.349	1.71
229.731	1.72
230.113	1.42
230.495	1.31
230.877	1.37
231.258	1.29
231.64	1.23
232.022	0.79
232.403	0.6
232.785	1.19
233.166	1.47
233.548	1.68
233.929	1.66
234.311	1.88
234.692	1.57
235.073	1.73
235.455	2.11
235.836	2.12
236.217	2.64
236.599	2.5
236.98	1.95
237.361	1.7
237.742	1.43
238.123	1.24
238.504	1.31
238.885	1.52
239.266	1.29
239.647	0.88
240.028	0.85
240.409	0.48
240.79	0.51
241.171	0.51
241.552	0.4
241.933	0.53
242.313	0.59
242.694	0.52
243.075	0.75
243.456	0.71
243.836	0.96
244.217	0.96
244.597	1.11
244.978	1.14
245.358	1.19
245.739	1.23
246.119	1.16
246.5	1.15
246.88	1.16
247.26	0.97
247.641	0.9
248.021	0.86
248.401	0.88
248.781	0.86
249.162	0.81
249.542	0.81
249.922	0.88
250.302	0.96
250.682	0.9
251.062	0.93
251.442	0.8
251.822	0.87
252.202	0.77
252.582	0.63
252.961	0.66
253.341	0.7
253.721	0.59
254.101	0.51
254.48	0.52
254.86	0.45
255.24	0.46
255.619	0.85
255.999	0.76
256.378	0.8
256.758	0.91
257.137	0.88
257.517	0.91
257.896	0.94
258.276	0.85
258.655	0.72
259.034	0.73
259.414	0.64
259.793	0.51
260.172	0.51
260.551	0.48
260.93	0.4
261.309	0.33
261.688	0.3
262.068	0.28
262.447	0.31
262.825	0.26
263.204	0.26
263.583	0.24
263.962	0.32
264.341	0.37
264.72	0.37
265.099	0.39
265.477	0.46
265.856	0.38
266.235	0.33
266.613	0.26
266.992	0.25
267.371	0.2
267.749	0.28
268.128	0.17
268.506	0.19
268.884	0.2
269.263	0.23
269.641	0.21
270.02	0.29
270.398	0.34
270.776	0.44
271.154	0.54
271.533	0.6
271.911	0.52
272.289	0.51
272.667	0.51
273.045	0.46
273.423	0.51
273.801	0.5
274.179	0.45
274.557	0.42
274.935	0.39
275.313	0.31
275.69	0.33
276.068	0.4
276.446	0.39
276.824	0.39
277.201	0.47
277.579	0.45
277.957	0.47
278.334	0.47
278.712	0.45
279.089	0.38
279.467	0.46
279.844	0.46
280.222	0.42
280.599	0.48
280.976	0.42
281.354	0.38
281.731	0.35
282.108	0.39
282.485	0.4
282.863	0.43
283.24	0.48
283.617	0.42
283.994	0.42
284.371	0.42
284.748	0.4
285.125	0.46
285.502	0.47
285.879	0.51
286.256	0.5
286.633	0.55
287.009	0.58
287.386	0.61
287.763	0.68
288.139	0.69
288.516	0.72
288.893	0.74
289.269	0.74
289.646	0.79
290.022	0.79
290.399	0.78
290.775	0.78
291.152	0.79
291.528	0.79
291.904	0.77
292.281	0.77
292.657	0.77
293.033	0.8
293.41	0.84
293.786	0.81
294.162	0.82
294.538	0.87
294.914	0.91
295.29	0.89
295.666	0.91
296.042	0.94
296.418	0.98
296.794	1.04
297.17	1.04
297.546	1.06
297.921	1.1
298.297	1.16
298.673	1.18
299.048	1.21
299.424	1.28
299.8	1.33
300.175	1.37
300.551	1.43
300.926	1.46
301.302	1.52
301.677	1.55
302.053	1.61
302.428	1.6
302.803	1.63
303.179	1.65
303.554	1.7
303.929	1.75
304.304	1.8
304.68	1.84
305.055	1.88
305.43	1.91
305.805	1.91
306.18	1.91
306.555	1.99
306.93	2.03
307.305	2.05
307.679	2.05
308.054	2
308.429	2
308.804	2.01
309.179	2.02
309.553	2.03
309.928	2.06
310.303	2.1
310.677	2.1
311.052	2.13
311.426	2.15
311.801	2.18
312.175	2.22
312.55	2.26
312.924	2.26
313.298	2.25
313.673	2.28
314.047	2.31
314.421	2.31
314.795	2.33
315.17	2.36
315.544	2.39
315.918	2.41
316.292	2.43
316.666	2.49
317.04	2.55
317.414	2.65
317.788	2.71
318.162	2.77
318.535	2.88
318.909	2.96
319.283	3
319.657	3.1
320.03	3.21
320.404	3.34
320.778	3.47
321.151	3.68
321.525	3.8
321.898	4.03
322.272	4.18
322.645	4.35
323.019	4.53
323.392	4.78
323.765	5.13
324.139	5.42
324.512	5.72
324.885	6.04
325.258	6.31
325.632	6.5
326.005	6.66
326.378	6.77
326.751	6.9
327.124	6.97
327.497	6.95
327.87	6.94
328.243	6.97
328.616	7
328.988	7.02
329.361	7.02
329.734	7.04
330.107	7.04
330.479	7.01
330.852	6.94
331.225	6.87
331.597	6.82
331.97	6.66
332.342	6.58
332.715	6.48
333.087	6.36
333.46	6.26
333.832	6.21
334.204	6.19
334.577	6.16
334.949	6.14
335.321	6.11
335.693	6.07
336.065	6
336.438	5.89
336.81	5.77
337.182	5.74
337.554	5.67
337.926	5.58
338.298	5.51
338.669	5.43
339.041	5.4
339.413	5.35
339.785	5.28
340.157	5.23
340.528	5.14
340.9	5.06
341.272	4.97
341.643	4.93
342.015	4.93
342.386	4.96
342.758	5.05
343.129	5.11
343.501	5.17
343.872	5.25
344.243	5.26
344.615	5.27
344.986	5.3
345.357	5.3
345.728	5.26
346.099	5.23
346.471	5.2
346.842	5.17
347.213	5.14
347.584	5.13
347.955	5.15
348.326	5.1
348.697	5.03
349.067	4.99
349.438	4.98
349.809	4.97
350.18	5.01
350.55	5.02
350.921	5.05
351.292	5.09
351.662	5.1
352.033	5.11
352.403	5.14
352.774	5.16
353.144	5.17
353.515	5.15
353.885	5.17
354.255	5.14
354.626	5.16
354.996	5.17
355.366	5.15
355.736	5.14
356.107	5.14
356.477	5.13
356.847	5.09
357.217	5.1
357.587	5.1
357.957	5.1
358.327	5.12
358.697	5.11
359.066	5.09
359.436	5.11
359.806	5.13
360.176	5.16
360.546	5.16
360.915	5.19
361.285	5.18
361.654	5.2
362.024	5.21
362.393	5.19
362.763	5.2
363.132	5.21
363.502	5.22
363.871	5.24
364.24	5.24
364.61	5.26
364.979	5.29
365.348	5.31
365.717	5.33
366.087	5.35
366.456	5.4
366.825	5.45
367.194	5.5
367.563	5.55
367.932	5.59
368.301	5.63
368.669	5.66
369.038	5.69
369.407	5.77
369.776	5.82
370.145	5.86
370.513	5.88
370.882	5.9
371.25	5.93
371.619	5.99
371.988	6.02
372.356	6.05
372.724	6.11
373.093	6.17
373.461	6.21
373.83	6.25
374.198	6.31
374.566	6.36
374.934	6.4
375.303	6.43
375.671	6.46
376.039	6.51
376.407	6.57
376.775	6.61
377.143	6.65
377.511	6.69
377.879	6.75
378.247	6.82
378.615	6.85
378.982	6.93
379.35	7
379.718	7.08
380.086	7.13
380.453	7.2
380.821	7.27
381.188	7.33
381.556	7.41
381.923	7.46
382.291	7.51
382.658	7.58
383.026	7.61
383.393	7.66
383.76	7.71
384.128	7.77
384.495	7.82
384.862	7.86
385.229	7.93
385.596	7.99
385.963	8.07
386.33	8.12
386.697	8.2
387.064	8.29
387.431	8.36
387.798	8.41
388.165	8.46
388.532	8.52
388.899	8.56
389.265	8.59
389.632	8.63
389.999	8.66
390.365	8.69
390.732	8.72
391.098	8.75
391.465	8.78
391.831	8.82
392.198	8.86
392.564	8.88
392.93	8.92
393.297	8.94
393.663	8.96
394.029	8.99
394.395	9.03
394.762	9.08
395.128	9.12
395.494	9.16
395.86	9.2
396.226	9.21
396.592	9.25
396.958	9.28
397.323	9.34
397.689	9.39
398.055	9.42
398.421	9.44
398.787	9.46
399.152	9.47
399.518	9.5
399.883	9.53
400.249	9.58
400.615	9.61
400.98	9.62
401.345	9.64
401.711	9.66
402.076	9.69
402.442	9.69
402.807	9.71
403.172	9.74
403.537	9.74
403.902	9.76
404.268	9.76
404.633	9.77
404.998	9.8
405.363	9.81
405.728	9.82
406.093	9.84
406.457	9.87
406.822	9.89
407.187	9.91
407.552	9.92
407.917	9.95
408.281	9.99
408.646	10.02
409.011	10.05
409.375	10.05
409.74	10.06
410.104	10.06
410.469	10.07
410.833	10.08
411.197	10.08
411.562	10.1
411.926	10.08
412.29	10.1
412.655	10.09
413.019	10.09
413.383	10.12
413.747	10.15
414.111	10.18
414.475	10.2
414.839	10.23
415.203	10.25
415.567	10.28
415.931	10.32
416.295	10.32
416.658	10.32
417.022	10.34
417.386	10.34
417.749	10.33
418.113	10.33
418.477	10.35
418.84	10.34
419.204	10.35
419.567	10.35
419.931	10.35
420.294	10.37
420.657	10.41
421.021	10.41
421.384	10.44
421.747	10.45
422.11	10.48
422.473	10.47
422.836	10.48
423.199	10.46
423.562	10.46
423.925	10.47
424.288	10.44
424.651	10.44
425.014	10.43
425.377	10.42
425.74	10.41
426.102	10.4
426.465	10.41
426.828	10.42
427.19	10.44
427.553	10.45
427.916	10.44
428.278	10.46
428.641	10.46
429.003	10.46
429.365	10.47
429.728	10.48
430.09	10.47
430.452	10.46
430.814	10.43
431.177	10.42
431.539	10.41
431.901	10.42
432.263	10.44
432.625	10.45
432.987	10.46
433.349	10.48
433.711	10.51
434.072	10.54
434.434	10.55
434.796	10.59
435.158	10.64
435.519	10.68
435.881	10.69
436.243	10.7
436.604	10.71
436.966	10.72
437.327	10.72
437.689	10.71
438.05	10.73
438.411	10.76
438.773	10.78
439.134	10.78
439.495	10.78
439.856	10.82
440.218	10.84
440.579	10.87
440.94	10.88
441.301	10.9
441.662	10.94
442.023	10.96
442.384	10.99
442.745	10.99
443.105	10.99
443.466	11.01
443.827	11.02
444.188	11.01
444.548	11.01
444.909	11.03
445.269	11.03
445.63	11.03
445.99	11.04
446.351	11.04
446.711	11.03
447.072	11.04
447.432	11.05
447.792	11.05
448.153	11.08
448.513	11.08
448.873	11.1
449.233	11.09
449.593	11.09
449.953	11.08
450.313	11.08
450.673	11.08
451.033	11.06
451.393	11.03
451.753	11.01
452.113	11.36
452.472	11.34
452.832	11.27
453.192	11.24
453.551	11.21
453.911	11.18
454.271	11.14
454.63	11.13
454.989	11.11
455.349	11.12
455.708	11.1
456.068	10.9
456.427	10.9
456.786	10.92
457.145	10.92
457.505	10.93
457.864	10.95
458.223	10.98
458.582	11
458.941	11.03
459.3	11.02
459.659	11.03
460.018	11.03
460.376	11.03
460.735	11.01
461.094	11.02
461.453	11.01
461.811	10.98
462.17	10.96
462.529	10.95
462.887	10.93
463.246	10.93
463.604	10.93
463.963	10.94
464.321	10.84
464.679	10.83
465.038	10.82
465.396	10.83
465.754	10.83
466.112	10.84
466.47	10.84
466.828	10.84
467.186	10.83
467.544	10.84
467.902	10.84
468.26	11
468.618	11
468.976	11.03
469.334	11.03
469.692	11.04
470.049	11.04
470.407	11.04
470.765	11.04
471.122	11.07
471.48	11.07
471.837	11.08
472.195	11.09
472.552	11.13
472.909	11.14
473.267	11.17
473.624	11.18
473.981	11.2
474.338	11.21
474.696	11.22
475.053	11.22
475.41	11.24
475.767	11.26
476.124	11.27
476.481	11.27
476.838	11.28
477.194	11.28
477.551	11.31
477.908	11.32
478.265	11.33
478.621	11.32
478.978	11.32
479.335	11.33
479.691	11.35
480.048	11.35
480.404	11.35
480.761	11.37
481.117	11.39
481.473	11.4
481.83	11.41
482.186	11.43
482.542	11.46
482.898	11.5
483.255	11.54
483.611	11.55
483.967	11.6
484.323	11.63
484.679	11.65
485.035	11.67
485.39	11.68
485.746	11.68
486.102	11.7
486.458	11.71
486.814	11.73
487.169	11.74
487.525	11.74
487.88	11.72
488.236	11.72
488.591	11.7
488.947	11.69
489.302	11.69
489.658	11.71
490.013	11.72
490.368	11.71
490.723	11.69
491.079	11.67
491.434	11.66
491.789	11.66
492.144	11.65
492.499	11.64
492.854	11.65
493.209	11.66
493.564	11.65
493.919	11.64
494.273	11.64
494.628	11.62
494.983	11.61
495.338	11.6
495.692	11.59
496.047	11.57
496.401	11.57
496.756	11.55
497.11	11.51
497.465	11.48
497.819	11.45
498.173	11.44
498.528	11.43
498.882	11.41
499.236	11.41
499.59	11.41
499.944	11.43
500.298	11.43
500.652	11.43
501.006	11.44
501.36	11.44
501.714	11.41
502.068	11.4
502.422	11.41
502.776	11.39
503.129	11.39
503.483	11.37
503.837	11.37
504.19	11.35
504.544	11.33
504.897	11.31
505.251	11.29
505.604	11.27
505.958	11.24
506.311	11.2
506.664	11.18
507.017	11.13
507.371	11.08
507.724	11
508.077	10.96
508.43	10.92
508.783	10.89
509.136	10.85
509.489	10.83
509.842	10.8
510.195	10.76
510.547	10.74
510.9	10.73
511.253	10.71
511.606	10.68
511.958	10.64
512.311	10.6
512.663	10.55
513.016	10.5
513.368	10.47
513.721	10.46
514.073	10.42
514.425	10.39
514.778	10.34
515.13	10.31
515.482	10.29
515.834	10.25
516.186	10.24
516.538	10.22
516.89	10.22
517.242	10.22
517.594	10.19
517.946	10.18
518.298	10.17
518.65	10.15
519.001	10.12
519.353	10.09
519.705	10.05
520.056	10.02
520.408	9.97
520.759	9.93
521.111	9.87
521.462	9.85
521.814	9.79
522.165	9.76
522.516	9.73
522.868	9.71
523.219	9.68
523.57	9.66
523.921	9.63
524.272	9.6
524.623	9.56
524.974	9.51
525.325	9.46
525.676	9.43
526.027	9.4
526.378	9.33
526.728	9.31
527.079	9.28
527.43	9.25
527.78	9.21
528.131	9.18
528.481	9.14
528.832	9.12
529.182	9.11
529.533	9.07
529.883	9.05
530.233	9.04
530.584	9
530.934	9
531.284	8.96
531.634	8.93
531.984	8.89
532.334	8.87
532.684	8.83
533.034	8.8
533.384	8.78
533.734	8.76
534.084	8.72
534.434	8.69
534.783	8.66
535.133	8.61
535.483	8.59
535.832	8.58
536.182	8.55
536.531	8.54
536.881	8.52
537.23	8.5
537.58	8.47
537.929	8.42
538.278	8.95
538.628	8.91
538.977	8.89
539.326	8.85
539.675	8.79
540.024	8.74
540.373	8.69
540.722	8.63
541.071	8.57
541.42	8.55
541.769	8.53
542.117	7.92
542.466	7.89
542.815	7.86
543.163	7.83
543.512	7.84
543.861	7.83
544.209	7.82
544.558	7.81
544.906	7.8
545.254	7.75
545.603	7.74
545.951	7.73
546.299	7.74
546.647	7.75
546.996	7.74
547.344	7.68
547.692	7.66
548.04	7.63
548.388	7.62
548.736	7.6
549.083	7.58
549.431	7.56
549.779	7.51
550.127	7.45
550.475	7.41
550.822	7.39
551.17	7.36
551.517	7.34
551.865	7.34
552.212	7.32
552.56	7.29
552.907	7.28
553.254	7.25
553.602	7.22
553.949	7.21
554.296	7.17
554.643	7.14
554.99	7.12
555.337	7.08
555.684	7.04
556.031	7.02
556.378	6.97
556.725	6.95
557.072	6.91
557.419	6.91
557.765	6.86
558.112	6.84
558.459	6.81
558.805	6.83
559.152	6.81
559.498	6.77
559.845	6.74
560.191	6.72
560.538	6.68
560.884	6.65
561.23	6.59
561.576	6.53
561.923	6.48
562.269	6.43
562.615	6.37
562.961	6.34
563.307	6.34
563.653	6.32
563.999	6.27
564.344	6.24
564.69	6.25
565.036	6.28
565.382	6.31
565.727	6.32
566.073	6.31
566.419	6.29
566.764	6.27
567.11	6.24
567.455	6.19
567.8	6.19
568.146	6.18
568.491	6.13
568.836	6.09
569.181	6.07
569.527	6.04
569.872	6.03
570.217	6.01
570.562	6.01
570.907	5.99
571.252	6
571.597	6
571.941	5.98
572.286	5.97
572.631	5.95
572.976	5.94
573.32	5.92
573.665	5.9
574.009	5.87
574.354	5.86
574.698	5.85
575.043	5.84
575.387	5.83
575.731	5.8
576.076	5.78
576.42	5.77
576.764	5.77
577.108	5.75
577.452	5.74
577.796	5.72
578.14	5.71
578.484	5.7
578.828	5.69
579.172	5.69
579.516	5.68
579.86	5.66
580.203	5.65
580.547	5.63
580.891	5.61
581.234	5.6
581.578	5.61
581.921	5.61
582.264	5.59
582.608	5.57
582.951	5.57
583.294	5.56
583.638	5.56
583.981	5.56
584.324	5.54
584.667	5.53
585.01	5.52
585.353	5.49
585.696	5.48
586.039	5.48
586.382	5.46
586.725	5.44
587.067	5.44
587.41	5.44
587.753	5.44
588.095	5.45
588.438	5.44
588.781	5.43
589.123	5.4
589.465	5.4
589.808	5.4
590.15	5.41
590.492	5.39
590.835	5.37
591.177	5.35
591.519	5.34
591.861	5.33
592.203	5.33
592.545	5.33
592.887	5.34
593.229	5.32
593.571	5.3
593.913	5.27
594.254	5.26
594.596	5.27
594.938	5.27
595.279	5.26
595.621	5.26
595.963	5.28
596.304	5.3
596.645	5.29
596.987	5.29
597.328	5.28
597.669	5.27
598.011	5.28
598.352	5.28
598.693	5.27
599.034	5.26
599.375	5.26
599.716	5.28
600.057	5.29
600.398	5.25
600.739	5.25
601.08	5.25
601.42	5.25
601.761	5.26
602.102	5.24
602.442	5.23
602.783	5.2
603.123	5.19
603.464	5.17
603.804	5.15
604.145	5.15
604.485	5.15
604.825	5.14
605.166	5.13
605.506	5.14
605.846	5.15
606.186	5.15
606.526	5.15
606.866	5.15
607.206	5.15
607.546	5.15
607.886	5.15
608.225	5.13
608.565	5.12
608.905	5.12
609.245	5.12
609.584	5.1
609.924	5.09
610.263	5.09
610.603	5.1
610.942	5.1
611.281	5.1
611.621	5.08
611.96	5.06
612.299	5.05
612.638	5.05
612.978	5.03
613.317	5.01
613.656	4.99
613.995	4.96
614.334	4.92
614.672	4.91
615.011	4.9
615.35	4.9
615.689	4.91
616.027	4.93
616.366	4.9
616.705	4.9
617.043	4.87
617.382	4.86
617.72	4.83
618.059	4.81
618.397	4.77
618.735	4.77
619.073	4.78
619.412	4.78
619.75	4.74
620.088	4.74
620.426	4.74
620.764	4.73
621.102	4.73
621.44	4.72
621.778	4.72
622.115	4.72
622.453	4.71
622.791	4.7
623.129	4.69
623.466	4.66
623.804	4.65
624.141	4.65
624.479	4.66
624.816	4.66
625.153	4.67
625.491	4.68
625.828	4.68
626.165	4.69
626.502	4.68
626.84	4.64
627.177	4.65
627.514	4.63
627.851	4.65
628.188	4.62
628.524	4.62
628.861	4.63
629.198	4.62
629.535	4.61
629.871	4.57
630.208	4.55
630.545	4.58
630.881	4.59
631.218	4.6
631.554	4.58
631.89	4.56
632.227	4.56
632.563	4.55
632.899	4.52
633.235	4.52
633.572	4.51
633.908	4.52
634.244	4.48
634.58	4.46
634.916	4.43
635.251	4.47
635.587	4.47
635.923	4.47
636.259	4.49
636.595	4.47
636.93	4.44
637.266	4.48
637.601	4.45
637.937	4.44
638.272	4.45
638.608	4.44
638.943	4.37
639.278	4.4
639.613	4.34
639.949	4.34
640.284	4.34
640.619	4.37
640.954	4.34
641.289	4.36
641.624	4.38
641.959	4.38
642.294	4.3
642.628	4.27
642.963	4.24
643.298	4.27
643.632	4.3
643.967	4.31
644.302	4.25
644.636	4.24
644.971	4.21
645.305	4.17
645.639	4.15
645.974	4.22
646.308	4.2
646.642	4.18
646.976	4.18
647.31	4.07
647.644	4.07
647.978	4.12
648.312	4.1
648.646	4.09
648.98	4.15
649.314	4.14
649.647	4.13
649.981	4.16
650.315	4.14
650.648	4.1
650.982	4.08
651.315	4.1
651.649	4.06
651.982	4.06
652.316	4.08
652.649	4.02
652.982	4.04
653.315	4.02
653.648	4.07
653.982	4.06
654.315	4.04
654.648	4.04
654.981	3.99
655.313	3.98
655.646	3.98
655.979	4.01
656.312	3.94
656.644	3.93
656.977	3.96
657.31	3.89
657.642	3.92
657.975	3.94
658.307	3.97
658.64	4.02
658.972	4.06
659.304	4.02
659.636	4.01
659.969	4.05
660.301	4.06
660.633	4.02
660.965	4.03
661.297	3.96
661.629	3.96
661.961	3.94
662.292	3.88
662.624	3.84
662.956	3.85
663.288	3.84
663.619	3.84
663.951	3.79
664.282	3.78
664.614	3.75
664.945	3.78
665.276	3.72
665.608	3.7
665.939	3.68
666.27	3.63
666.601	3.62
666.933	3.56
667.264	3.58
667.595	3.57
667.926	3.61
668.256	3.59
668.587	3.6
668.918	3.65
669.249	3.7
669.58	3.71
669.91	3.75
670.241	3.77
670.571	3.8
670.902	3.79
671.232	3.7
671.563	3.66
671.893	3.66
672.223	3.63
672.554	3.6
672.884	3.63
673.214	3.66
673.544	3.7
673.874	3.71
674.204	3.67
674.534	3.6
674.864	3.74
675.194	3.73
675.524	3.82
675.853	3.86
676.183	3.82
676.513	3.7
676.842	3.71
677.172	3.65
677.501	3.64
677.831	3.71
678.16	3.85
678.489	3.89
678.819	3.9
679.148	3.86
679.477	3.81
679.806	3.86
680.135	3.95
680.464	3.91
680.793	3.89
681.122	3.81
681.451	3.7
681.78	3.58
682.108	3.52
682.437	3.47
682.766	3.42
683.094	3.48
683.423	3.38
683.751	3.27
684.08	3.19
684.408	3.15
684.737	3.24
685.065	3.26
685.393	3.28
685.721	3.26
686.049	3.31
686.377	3.33
686.705	3.26
687.033	3.3
687.361	3.37
687.689	3.47
688.017	3.56
688.345	3.51
688.673	3.59
689.0	3.6
