Data from groin1_Reflection__1__12-02-16-880.txt Node

Date: Thu Aug 04 12:02:16 AEST 2022
User: kathy
Spectrometer: JAZA2503
Trigger mode: 0
Integration Time (sec): 2.883200E-1
Scans to average: 10
Electric dark correction enabled: true
Nonlinearity correction enabled: true
Boxcar width: 5
XAxis mode: Wavelengths
Number of Pixels in Spectrum: 2048
>>>>>Begin Spectral Data<<<<<
189.467	-133.09
189.852	-276.56
190.237	-6844.24
190.622	-385.43
191.007	-95.15
191.392	-52.58
191.777	-36.13
192.162	-35.18
192.546	-116.51
192.931	-160.89
193.316	-195.08
193.701	-396.63
194.086	203.88
194.47	162.15
194.855	357.35
195.24	6713.78
195.624	196.92
196.009	-227.06
196.393	-66.41
196.778	-48.88
197.163	77.56
197.547	67.46
197.931	64.56
198.316	49.12
198.7	41.65
199.085	28.89
199.469	20.83
199.853	17.75
200.237	14.75
200.622	15.28
201.006	10.7
201.39	7.57
201.774	1.4
202.158	3.38
202.542	3.89
202.926	-2.56
203.31	-6.91
203.694	-6.5
204.078	-5.51
204.462	0.1
204.846	2.26
205.23	3.2
205.614	0.94
205.998	-8.16
206.381	-10.43
206.765	-5.74
207.149	-5.9
207.532	-0.01
207.916	2.57
208.3	1.93
208.683	1.74
209.067	2.61
209.45	7.34
209.834	12.31
210.217	22.88
210.601	26.99
210.984	25.12
211.367	32.01
211.751	33.69
212.134	36.96
212.517	34.97
212.901	39.83
213.284	40.72
213.667	43.31
214.05	42.45
214.433	38.32
214.816	34.55
215.199	36.56
215.582	32.27
215.965	26.14
216.348	17.4
216.731	18.92
217.114	11.83
217.497	6.58
217.88	2.83
218.262	-1.9
218.645	-3.01
219.028	-3.75
219.411	-4.11
219.793	-4.96
220.176	-0.68
220.559	2.15
220.941	1.11
221.324	2.83
221.706	4.8
222.089	4.38
222.471	7.07
222.853	4.93
223.236	5.46
223.618	3.44
224	4.42
224.383	1.64
224.765	3.6
225.147	4.91
225.529	5.19
225.912	4.89
226.294	4.52
226.676	3.83
227.058	3.95
227.44	3.38
227.822	3.06
228.204	2.58
228.586	3.31
228.968	3.04
229.349	2.54
229.731	2.73
230.113	2.3
230.495	2.4
230.877	2.29
231.258	2.65
231.64	2.67
232.022	2.57
232.403	2.72
232.785	3.06
233.166	2.97
233.548	3.52
233.929	3.27
234.311	3.68
234.692	3.38
235.073	3.54
235.455	3.12
235.836	3.14
236.217	3.35
236.599	3.19
236.98	2.35
237.361	1.86
237.742	1.33
238.123	1.32
238.504	1.01
238.885	1.02
239.266	1.15
239.647	1.21
240.028	1.31
240.409	1.39
240.79	1.57
241.171	1.89
241.552	2.08
241.933	2.21
242.313	2.18
242.694	2.24
243.075	2.49
243.456	2.29
243.836	2.44
244.217	2.48
244.597	2.51
244.978	2.44
245.358	2.33
245.739	2.31
246.119	2.1
246.5	2.09
246.88	2.04
247.26	1.81
247.641	1.76
248.021	1.69
248.401	1.62
248.781	1.58
249.162	1.67
249.542	1.66
249.922	1.64
250.302	1.7
250.682	1.67
251.062	1.69
251.442	1.65
251.822	1.74
252.202	1.73
252.582	1.78
252.961	1.88
253.341	1.82
253.721	1.88
254.101	1.84
254.48	1.91
254.86	1.82
255.24	1.87
255.619	2.23
255.999	2.11
256.378	2.09
256.758	2.16
257.137	1.91
257.517	1.91
257.896	1.81
258.276	1.71
258.655	1.52
259.034	1.43
259.414	1.35
259.793	1.16
260.172	1.19
260.551	1.13
260.93	1.02
261.309	1.03
261.688	0.97
262.068	1.04
262.447	1.1
262.825	1.1
263.204	1.17
263.583	1.2
263.962	1.4
264.341	1.49
264.72	1.58
265.099	1.67
265.477	1.76
265.856	1.69
266.235	1.57
266.613	1.47
266.992	1.44
267.371	1.37
267.749	1.42
268.128	1.25
268.506	1.19
268.884	1.17
269.263	1.05
269.641	0.96
270.02	0.94
270.398	0.94
270.776	1.04
271.154	1.1
271.533	1.09
271.911	0.97
272.289	0.97
272.667	1
273.045	1.01
273.423	1.04
273.801	1.05
274.179	1.07
274.557	1.06
274.935	1.04
275.313	1.02
275.69	1.07
276.068	1.11
276.446	1.15
276.824	1.16
277.201	1.19
277.579	1.2
277.957	1.25
278.334	1.25
278.712	1.25
279.089	1.25
279.467	1.3
279.844	1.33
280.222	1.3
280.599	1.27
280.976	1.2
281.354	1.1
281.731	1.13
282.108	1.15
282.485	1.15
282.863	1.2
283.24	1.14
283.617	1.11
283.994	1.07
284.371	1.14
284.748	1.16
285.125	1.17
285.502	1.23
285.879	1.24
286.256	1.23
286.633	1.26
287.009	1.24
287.386	1.29
287.763	1.33
288.139	1.39
288.516	1.42
288.893	1.45
289.269	1.49
289.646	1.55
290.022	1.57
290.399	1.59
290.775	1.6
291.152	1.66
291.528	1.69
291.904	1.73
292.281	1.73
292.657	1.75
293.033	1.81
293.41	1.87
293.786	1.9
294.162	1.96
294.538	2.05
294.914	2.12
295.29	2.15
295.666	2.22
296.042	2.24
296.418	2.33
296.794	2.39
297.17	2.41
297.546	2.47
297.921	2.51
298.297	2.56
298.673	2.62
299.048	2.67
299.424	2.75
299.8	2.82
300.175	2.9
300.551	2.94
300.926	2.97
301.302	3.04
301.677	3.09
302.053	3.17
302.428	3.19
302.803	3.22
303.179	3.26
303.554	3.31
303.929	3.34
304.304	3.38
304.68	3.44
305.055	3.54
305.43	3.58
305.805	3.61
306.18	3.61
306.555	3.67
306.93	3.73
307.305	3.76
307.679	3.74
308.054	3.72
308.429	3.7
308.804	3.71
309.179	3.7
309.553	3.69
309.928	3.72
310.303	3.76
310.677	3.78
311.052	3.78
311.426	3.79
311.801	3.82
312.175	3.86
312.55	3.92
312.924	3.93
313.298	3.95
313.673	4
314.047	3.99
314.421	4
314.795	4.03
315.17	4.05
315.544	4.09
315.918	4.14
316.292	4.15
316.666	4.2
317.04	4.24
317.414	4.3
317.788	4.34
318.162	4.42
318.535	4.48
318.909	4.55
319.283	4.58
319.657	4.63
320.03	4.7
320.404	4.83
320.778	4.95
321.151	5.13
321.525	5.28
321.898	5.46
322.272	5.64
322.645	5.76
323.019	5.94
323.392	6.15
323.765	6.49
324.139	6.76
324.512	7.04
324.885	7.31
325.258	7.5
325.632	7.69
326.005	7.84
326.378	7.96
326.751	8.04
327.124	8.09
327.497	8.15
327.87	8.09
328.243	8.12
328.616	8.14
328.988	8.13
329.361	8.12
329.734	8.11
330.107	8.05
330.479	8
330.852	7.94
331.225	7.89
331.597	7.79
331.97	7.71
332.342	7.59
332.715	7.47
333.087	7.34
333.46	7.25
333.832	7.19
334.204	7.16
334.577	7.11
334.949	7.06
335.321	7.03
335.693	6.98
336.065	6.82
336.438	6.75
336.81	6.68
337.182	6.64
337.554	6.59
337.926	6.51
338.298	6.45
338.669	6.27
339.041	6.19
339.413	6.12
339.785	6.03
340.157	5.97
340.528	5.9
340.9	5.82
341.272	5.76
341.643	5.7
342.015	5.68
342.386	5.71
342.758	5.8
343.129	5.8
343.501	5.85
343.872	5.91
344.243	5.92
344.615	5.9
344.986	5.92
345.357	5.91
345.728	5.88
346.099	5.82
346.471	5.79
346.842	5.76
347.213	5.7
347.584	5.7
347.955	5.69
348.326	5.67
348.697	5.59
349.067	5.58
349.438	5.59
349.809	5.61
350.18	5.66
350.55	5.66
350.921	5.7
351.292	5.75
351.662	5.8
352.033	5.82
352.403	5.84
352.774	5.88
353.144	5.87
353.515	5.89
353.885	5.9
354.255	5.89
354.626	5.94
354.996	5.95
355.366	5.96
355.736	5.93
356.107	5.93
356.477	5.93
356.847	5.93
357.217	5.97
357.587	6
357.957	6.04
358.327	6.07
358.697	6.08
359.066	6.08
359.436	6.11
359.806	6.14
360.176	6.19
360.546	6.21
360.915	6.24
361.285	6.25
361.654	6.25
362.024	6.26
362.393	6.26
362.763	6.27
363.132	6.29
363.502	6.31
363.871	6.33
364.24	6.34
364.61	6.37
364.979	6.41
365.348	6.46
365.717	6.51
366.087	6.55
366.456	6.6
366.825	6.64
367.194	6.72
367.563	6.76
367.932	6.8
368.301	6.85
368.669	6.91
369.038	6.93
369.407	6.97
369.776	7.01
370.145	7.04
370.513	7.08
370.882	7.11
371.25	7.13
371.619	7.21
371.988	7.28
372.356	7.34
372.724	7.37
373.093	7.44
373.461	7.5
373.83	7.54
374.198	7.61
374.566	7.67
374.934	7.73
375.303	7.79
375.671	7.8
376.039	7.85
376.407	7.89
376.775	7.95
377.143	8.01
377.511	8.06
377.879	8.11
378.247	8.16
378.615	8.22
378.982	8.31
379.35	8.36
379.718	8.45
380.086	8.49
380.453	8.55
380.821	8.62
381.188	8.64
381.556	8.7
381.923	8.75
382.291	8.79
382.658	8.84
383.026	8.89
383.393	8.98
383.76	9.04
384.128	9.11
384.495	9.18
384.862	9.23
385.229	9.32
385.596	9.38
385.963	9.46
386.33	9.51
386.697	9.55
387.064	9.6
387.431	9.64
387.798	9.7
388.165	9.77
388.532	9.8
388.899	9.83
389.265	9.86
389.632	9.9
389.999	9.92
390.365	9.97
390.732	10
391.098	10.03
391.465	10.07
391.831	10.09
392.198	10.12
392.564	10.17
392.93	10.23
393.297	10.26
393.663	10.29
394.029	10.35
394.395	10.4
394.762	10.47
395.128	10.52
395.494	10.57
395.86	10.63
396.226	10.68
396.592	10.72
396.958	10.77
397.323	10.82
397.689	10.9
398.055	10.94
398.421	11
398.787	11.03
399.152	11.06
399.518	11.09
399.883	11.12
400.249	11.16
400.615	11.19
400.98	11.21
401.345	11.24
401.711	11.25
402.076	11.27
402.442	11.3
402.807	11.32
403.172	11.37
403.537	11.41
403.902	11.42
404.268	11.45
404.633	11.47
404.998	11.51
405.363	11.52
405.728	11.56
406.093	11.58
406.457	11.58
406.822	11.62
407.187	11.65
407.552	11.66
407.917	11.68
408.281	11.71
408.646	11.74
409.011	11.76
409.375	11.79
409.74	11.8
410.104	11.8
410.469	11.85
410.833	11.86
411.197	11.88
411.562	11.91
411.926	11.93
412.29	11.94
412.655	11.97
413.019	11.98
413.383	12
413.747	12.04
414.111	12.08
414.475	12.12
414.839	12.16
415.203	12.19
415.567	12.21
415.931	12.26
416.295	12.31
416.658	12.33
417.022	12.35
417.386	12.35
417.749	12.37
418.113	12.38
418.477	12.4
418.84	12.4
419.204	12.43
419.567	12.45
419.931	12.46
420.294	12.46
420.657	12.51
421.021	12.56
421.384	12.61
421.747	12.64
422.11	12.68
422.473	12.69
422.836	12.73
423.199	12.74
423.562	12.78
423.925	12.8
424.288	12.82
424.651	12.85
425.014	12.86
425.377	12.89
425.74	12.89
426.102	12.91
426.465	12.98
426.828	12.99
427.19	13.04
427.553	13.06
427.916	13.1
428.278	13.12
428.641	13.11
429.003	13.13
429.365	13.14
429.728	13.18
430.09	13.17
430.452	13.16
430.814	13.15
431.177	13.14
431.539	13.16
431.901	13.18
432.263	13.21
432.625	13.24
432.987	13.28
433.349	13.33
433.711	13.38
434.072	13.44
434.434	13.49
434.796	13.57
435.158	13.67
435.519	13.7
435.881	13.75
436.243	13.8
436.604	13.83
436.966	13.87
437.327	13.91
437.689	13.92
438.05	13.93
438.411	13.98
438.773	14
439.134	14.02
439.495	14.07
439.856	14.09
440.218	14.12
440.579	14.18
440.94	14.23
441.301	14.27
441.662	14.32
442.023	14.4
442.384	14.42
442.745	14.47
443.105	14.49
443.466	14.52
443.827	14.55
444.188	14.59
444.548	14.63
444.909	14.65
445.269	14.66
445.63	14.71
445.99	14.71
446.351	14.76
446.711	14.78
447.072	14.83
447.432	14.89
447.792	14.93
448.153	14.97
448.513	15.01
448.873	15.05
449.233	15.08
449.593	15.09
449.953	15.15
450.313	15.18
450.673	15.2
451.033	15.22
451.393	15.23
451.753	15.24
452.113	15.71
452.472	15.71
452.832	15.7
453.192	15.71
453.551	15.73
453.911	15.73
454.271	15.75
454.63	15.78
454.989	15.79
455.349	15.84
455.708	15.86
456.068	15.64
456.427	15.67
456.786	15.73
457.145	15.8
457.505	15.85
457.864	15.93
458.223	16
458.582	16.09
458.941	16.17
459.3	16.22
459.659	16.28
460.018	16.34
460.376	16.4
460.735	16.43
461.094	16.47
461.453	16.5
461.811	16.51
462.17	16.54
462.529	16.56
462.887	16.58
463.246	16.63
463.604	16.67
463.963	16.72
464.321	16.67
464.679	16.7
465.038	16.72
465.396	16.78
465.754	16.84
466.112	16.89
466.47	16.95
466.828	17.02
467.186	17.06
467.544	17.12
467.902	17.18
468.26	17.37
468.618	17.44
468.976	17.51
469.334	17.55
469.692	17.6
470.049	17.65
470.407	17.68
470.765	17.71
471.122	17.79
471.48	17.84
471.837	17.92
472.195	17.97
472.552	18.05
472.909	18.13
473.267	18.22
473.624	18.3
473.981	18.36
474.338	18.42
474.696	18.51
475.053	18.57
475.41	18.63
475.767	18.7
476.124	18.78
476.481	18.86
476.838	18.94
477.194	19
477.551	19.09
477.908	19.17
478.265	19.25
478.621	19.3
478.978	19.38
479.335	19.46
479.691	19.56
480.048	19.63
480.404	19.7
480.761	19.77
481.117	19.86
481.473	19.94
481.83	20.03
482.186	20.12
482.542	20.21
482.898	20.3
483.255	20.39
483.611	20.46
483.967	20.56
484.323	20.65
484.679	20.74
485.035	20.84
485.39	20.91
485.746	20.98
486.102	21.06
486.458	21.14
486.814	21.24
487.169	21.33
487.525	21.41
487.88	21.46
488.236	21.54
488.591	21.64
488.947	21.7
489.302	21.78
489.658	21.87
490.013	21.96
490.368	22.03
490.723	22.08
491.079	22.16
491.434	22.24
491.789	22.34
492.144	22.4
492.499	22.49
492.854	22.55
493.209	22.63
493.564	22.71
493.919	22.78
494.273	22.87
494.628	22.93
494.983	22.99
495.338	23.07
495.692	23.14
496.047	23.22
496.401	23.29
496.756	23.37
497.11	23.44
497.465	23.5
497.819	23.55
498.173	23.62
498.528	23.74
498.882	23.84
499.236	23.94
499.59	24.02
499.944	24.1
500.298	24.18
500.652	24.26
501.006	24.34
501.36	24.41
501.714	24.48
502.068	24.55
502.422	24.61
502.776	24.66
503.129	24.75
503.483	24.84
503.837	24.94
504.19	25.06
504.544	25.14
504.897	25.21
505.251	25.28
505.604	25.31
505.958	25.35
506.311	25.37
506.664	25.39
507.017	25.38
507.371	25.38
507.724	25.37
508.077	25.37
508.43	25.4
508.783	25.43
509.136	25.46
509.489	25.55
509.842	25.61
510.195	25.66
510.547	25.73
510.9	25.79
511.253	25.82
511.606	25.88
511.958	25.9
512.311	25.91
512.663	25.94
513.016	25.94
513.368	25.95
513.721	25.96
514.073	26
514.425	26.02
514.778	26.04
515.13	26.07
515.482	26.09
515.834	26.13
516.186	26.18
516.538	26.24
516.89	26.34
517.242	26.43
517.594	26.51
517.946	26.58
518.298	26.65
518.65	26.72
519.001	26.76
519.353	26.8
519.705	26.81
520.056	26.84
520.408	26.81
520.759	26.81
521.111	26.79
521.462	26.81
521.814	26.83
522.165	26.85
522.516	26.88
522.868	26.94
523.219	26.98
523.57	26.99
523.921	27.05
524.272	27.12
524.623	27.16
524.974	27.17
525.325	27.17
525.676	27.17
526.027	27.19
526.378	27.2
526.728	27.22
527.079	27.22
527.43	27.28
527.78	27.3
528.131	27.31
528.481	27.33
528.832	27.37
529.182	27.43
529.533	27.46
529.883	27.51
530.233	27.53
530.584	27.56
530.934	27.61
531.284	27.64
531.634	27.66
531.984	27.71
532.334	27.72
532.684	27.72
533.034	27.75
533.384	27.79
533.734	27.8
534.084	27.82
534.434	27.83
534.783	27.88
535.133	27.88
535.483	27.89
535.832	27.88
536.182	27.88
536.531	27.95
536.881	27.98
537.23	27.99
537.58	27.97
537.929	27.99
538.278	29.37
538.628	29.32
538.977	29.32
539.326	29.35
539.675	29.37
540.024	29.41
540.373	29.39
540.722	29.4
541.071	29.42
541.42	29.45
541.769	29.5
542.117	28.17
542.466	28.22
542.815	28.24
543.163	28.27
543.512	28.31
543.861	28.34
544.209	28.37
544.558	28.37
544.906	28.4
545.254	28.43
545.603	28.45
545.951	28.48
546.299	28.55
546.647	28.63
546.996	28.66
547.344	28.69
547.692	28.72
548.04	28.77
548.388	28.82
548.736	28.85
549.083	28.87
549.431	28.86
549.779	28.86
550.127	28.81
550.475	28.79
550.822	28.76
551.17	28.73
551.517	28.72
551.865	28.69
552.212	28.67
552.56	28.68
552.907	28.72
553.254	28.74
553.602	28.76
553.949	28.78
554.296	28.78
554.643	28.83
554.99	28.84
555.337	28.82
555.684	28.81
556.031	28.82
556.378	28.81
556.725	28.77
557.072	28.77
557.419	28.8
557.765	28.79
558.112	28.83
558.459	28.81
558.805	28.79
559.152	28.84
559.498	28.83
559.845	28.81
560.191	28.82
560.538	28.82
560.884	28.77
561.23	28.72
561.576	28.69
561.923	28.61
562.269	28.61
562.615	28.63
562.961	28.6
563.307	28.64
563.653	28.66
563.999	28.64
564.344	28.67
564.69	28.75
565.036	28.78
565.382	28.84
565.727	28.89
566.073	28.84
566.419	28.84
566.764	28.83
567.11	28.77
567.455	28.74
567.8	28.75
568.146	28.67
568.491	28.6
568.836	28.6
569.181	28.55
569.527	28.55
569.872	28.59
570.217	28.55
570.562	28.55
570.907	28.6
571.252	28.59
571.597	28.6
571.941	28.64
572.286	28.69
572.631	28.68
572.976	28.68
573.32	28.68
573.665	28.69
574.009	28.69
574.354	28.68
574.698	28.69
575.043	28.7
575.387	28.71
575.731	28.72
576.076	28.72
576.42	28.72
576.764	28.69
577.108	28.66
577.452	28.65
577.796	28.64
578.14	28.6
578.484	28.6
578.828	28.59
579.172	28.58
579.516	28.52
579.86	28.45
580.203	28.41
580.547	28.4
580.891	28.4
581.234	28.34
581.578	28.31
581.921	28.29
582.264	28.24
582.608	28.23
582.951	28.23
583.294	28.23
583.638	28.23
583.981	28.21
584.324	28.21
584.667	28.2
585.01	28.18
585.353	28.17
585.696	28.17
586.039	28.16
586.382	28.16
586.725	28.15
587.067	28.17
587.41	28.18
587.753	28.19
588.095	28.22
588.438	28.21
588.781	28.21
589.123	28.19
589.465	28.19
589.808	28.19
590.15	28.19
590.492	28.18
590.835	28.15
591.177	28.15
591.519	28.15
591.861	28.14
592.203	28.14
592.545	28.15
592.887	28.15
593.229	28.13
593.571	28.12
593.913	28.09
594.254	28.06
594.596	28.07
594.938	28.1
595.279	28.07
595.621	28.05
595.963	28.06
596.304	28.06
596.645	28.06
596.987	28.09
597.328	28.05
597.669	28.04
598.011	28.04
598.352	28.03
598.693	28.03
599.034	28
599.375	28
599.716	28.03
600.057	28.02
600.398	27.98
600.739	27.98
601.08	27.99
601.42	28.02
601.761	28.02
602.102	28
602.442	27.96
602.783	27.95
603.123	27.94
603.464	27.94
603.804	27.89
604.145	27.84
604.485	27.82
604.825	27.82
605.166	27.81
605.506	27.81
605.846	27.81
606.186	27.79
606.526	27.78
606.866	27.77
607.206	27.72
607.546	27.7
607.886	27.7
608.225	27.65
608.565	27.62
608.905	27.58
609.245	27.56
609.584	27.56
609.924	27.53
610.263	27.5
610.603	27.49
610.942	27.49
611.281	27.5
611.621	27.47
611.96	27.45
612.299	27.45
612.638	27.44
612.978	27.43
613.317	27.42
613.656	27.39
613.995	27.38
614.334	27.36
614.672	27.32
615.011	27.29
615.35	27.27
615.689	27.26
616.027	27.26
616.366	27.25
616.705	27.22
617.043	27.21
617.382	27.19
617.72	27.18
618.059	27.15
618.397	27.13
618.735	27.06
619.073	27.05
619.412	27.04
619.75	26.97
620.088	26.94
620.426	26.93
620.764	26.9
621.102	26.84
621.44	26.83
621.778	26.78
622.115	26.78
622.453	26.76
622.791	26.75
623.129	26.71
623.466	26.71
623.804	26.7
624.141	26.68
624.479	26.65
624.816	26.63
625.153	26.61
625.491	26.59
625.828	26.59
626.165	26.6
626.502	26.56
626.84	26.51
627.177	26.52
627.514	26.47
627.851	26.46
628.188	26.44
628.524	26.39
628.861	26.36
629.198	26.31
629.535	26.26
629.871	26.23
630.208	26.2
630.545	26.23
630.881	26.21
631.218	26.19
631.554	26.16
631.89	26.14
632.227	26.12
632.563	26.13
632.899	26.12
633.235	26.14
633.572	26.13
633.908	26.09
634.244	26.02
634.58	25.95
634.916	25.94
635.251	25.93
635.587	25.88
635.923	25.89
636.259	25.85
636.595	25.82
636.93	25.79
637.266	25.8
637.601	25.76
637.937	25.76
638.272	25.79
638.608	25.75
638.943	25.69
639.278	25.67
639.613	25.59
639.949	25.55
640.284	25.5
640.619	25.49
640.954	25.45
641.289	25.4
641.624	25.39
641.959	25.26
642.294	25.16
642.628	25.1
642.963	25.05
643.298	24.98
643.632	24.98
643.967	24.98
644.302	24.83
644.636	24.76
644.971	24.68
645.305	24.58
645.639	24.62
645.974	24.64
646.308	24.62
646.642	24.61
646.976	24.6
647.31	24.54
647.644	24.48
647.978	24.43
648.312	24.39
648.646	24.42
648.98	24.49
649.314	24.47
649.647	24.5
649.981	24.47
650.315	24.45
650.648	24.42
650.982	24.39
651.315	24.4
651.649	24.42
651.982	24.42
652.316	24.37
652.649	24.26
652.982	24.24
653.315	24.14
653.648	24.17
653.982	24.14
654.315	24.12
654.648	24.05
654.981	23.94
655.313	24.02
655.646	23.98
655.979	24.04
656.312	24.04
656.644	24.01
656.977	23.97
657.31	23.94
657.642	23.92
657.975	23.85
658.307	23.83
658.64	23.83
658.972	23.74
659.304	23.76
659.636	23.68
659.969	23.64
660.301	23.6
660.633	23.6
660.965	23.55
661.297	23.51
661.629	23.57
661.961	23.6
662.292	23.54
662.624	23.52
662.956	23.49
663.288	23.49
663.619	23.53
663.951	23.47
664.282	23.43
664.614	23.38
664.945	23.38
665.276	23.3
665.608	23.21
665.939	23.24
666.27	23.19
666.601	23.11
666.933	23.05
667.264	23
667.595	23.02
667.926	23.06
668.256	23.15
668.587	23.11
668.918	23.14
669.249	23.18
669.58	23.16
669.91	23.12
670.241	23.17
670.571	23.14
670.902	23.12
671.232	23.02
671.563	22.94
671.893	22.84
672.223	22.8
672.554	22.69
672.884	22.69
673.214	22.67
673.544	22.79
673.874	22.74
674.204	22.75
674.534	22.67
674.864	22.71
675.194	22.68
675.524	22.64
675.853	22.61
676.183	22.63
676.513	22.58
676.842	22.48
