Data from groin1_Reflection__0__15-10-59-536.txt Node

Date: Thu Aug 04 15:10:59 AEST 2022
User: kathy
Spectrometer: JAZA2503
Trigger mode: 0
Integration Time (sec): 2.439700E-1
Scans to average: 10
Electric dark correction enabled: true
Nonlinearity correction enabled: true
Boxcar width: 5
XAxis mode: Wavelengths
Number of Pixels in Spectrum: 2048
>>>>>Begin Spectral Data<<<<<
189.467	281.22
189.852	98.94
190.237	136.91
190.622	169.86
191.007	153.46
191.392	92.15
191.777	35.17
192.162	19.43
192.546	-26.72
192.931	-449.04
193.316	306.33
193.701	242.04
194.086	33.6
194.47	81.98
194.855	-1185.19
195.24	125.48
195.624	107.61
196.009	98.44
196.393	191.45
196.778	213.99
197.163	116
197.547	74.67
197.931	78.75
198.316	59.37
198.7	51.42
199.085	55.49
199.469	59.56
199.853	52.99
200.237	41.38
200.622	37.89
201.006	46.83
201.39	42.82
201.774	41.19
202.158	41.88
202.542	41.79
202.926	38.77
203.31	39.26
203.694	30.43
204.078	25.29
204.462	30.8
204.846	25.22
205.23	21.8
205.614	18.21
205.998	21.19
206.381	20.35
206.765	22.07
207.149	19.06
207.532	15.87
207.916	13.81
208.3	15.51
208.683	12.5
209.067	16.72
209.45	10.98
209.834	15.77
210.217	14.58
210.601	11.37
210.984	11.79
211.367	20.6
211.751	19.43
212.134	22.95
212.517	22.59
212.901	24.01
213.284	27.59
213.667	31.82
214.05	29.89
214.433	28.04
214.816	30.98
215.199	32.51
215.582	30.04
215.965	22.07
216.348	23.68
216.731	20.38
217.114	14.41
217.497	4.76
217.88	2.12
218.262	-4.93
218.645	-6.98
219.028	-4.35
219.411	-8.1
219.793	-4.82
220.176	1.42
220.559	5.46
220.941	4.69
221.324	11.42
221.706	13.75
222.089	16.75
222.471	18.24
222.853	20.08
223.236	17.86
223.618	17.67
224	14.45
224.383	14.77
224.765	10.83
225.147	12.35
225.529	9.12
225.912	7.75
226.294	3.39
226.676	2.3
227.058	1.32
227.44	1.7
227.822	1.54
228.204	2.79
228.586	2.82
228.968	2.84
229.349	2.24
229.731	2.36
230.113	2.16
230.495	2.88
230.877	3.14
231.258	3.44
231.64	3.06
232.022	2.95
232.403	2.76
232.785	2.81
233.166	2.54
233.548	2.76
233.929	2.77
234.311	3.52
234.692	3.43
235.073	3.08
235.455	2.69
235.836	3.28
236.217	3.31
236.599	3.16
236.98	2.7
237.361	2.9
237.742	3
238.123	2.7
238.504	2.07
238.885	1.57
239.266	1.79
239.647	1.69
240.028	1.6
240.409	1.43
240.79	1.37
241.171	1.58
241.552	1.64
241.933	1.49
242.313	1.76
242.694	1.96
243.075	2.09
243.456	1.99
243.836	2.1
244.217	2.27
244.597	2.51
244.978	2.5
245.358	2.54
245.739	2.41
246.119	2.46
246.5	2.3
246.88	2.14
247.26	2.06
247.641	2.05
248.021	1.95
248.401	1.8
248.781	1.7
249.162	1.76
249.542	1.64
249.922	1.64
250.302	1.67
250.682	1.67
251.062	1.69
251.442	1.67
251.822	1.63
252.202	1.65
252.582	1.43
252.961	1.53
253.341	1.48
253.721	1.6
254.101	1.71
254.48	1.68
254.86	1.73
255.24	1.97
255.619	2.04
255.999	2.13
256.378	2.13
256.758	2.53
257.137	2.36
257.517	2.13
257.896	1.97
258.276	1.76
258.655	1.47
259.034	1.27
259.414	1.03
259.793	0.98
260.172	0.92
260.551	0.95
260.93	0.8
261.309	0.76
261.688	0.73
262.068	0.76
262.447	0.75
262.825	0.83
263.204	0.79
263.583	0.83
263.962	0.81
264.341	0.92
264.72	0.84
265.099	0.93
265.477	1
265.856	1.07
266.235	1.14
266.613	1.16
266.992	1.11
267.371	1.27
267.749	1.36
268.128	1.35
268.506	1.33
268.884	1.38
269.263	1.29
269.641	1.19
270.02	1.15
270.398	1.03
270.776	1.05
271.154	1.11
271.533	1.11
271.911	1.01
272.289	1.05
272.667	0.97
273.045	0.96
273.423	0.98
273.801	1.04
274.179	1.03
274.557	1.08
274.935	1.06
275.313	1.05
275.69	1.06
276.068	1.09
276.446	1.07
276.824	1.02
277.201	1.02
277.579	1.09
277.957	1.04
278.334	1.06
278.712	1.09
279.089	1.04
279.467	0.99
279.844	1.01
280.222	0.93
280.599	0.85
280.976	0.94
281.354	0.88
281.731	0.79
282.108	0.82
282.485	0.78
282.863	0.74
283.24	0.82
283.617	0.85
283.994	0.84
284.371	0.86
284.748	0.96
285.125	0.95
285.502	0.97
285.879	1.03
286.256	1.08
286.633	1.15
287.009	1.22
287.386	1.25
287.763	1.29
288.139	1.29
288.516	1.4
288.893	1.45
289.269	1.47
289.646	1.55
290.022	1.58
290.399	1.59
290.775	1.59
291.152	1.61
291.528	1.66
291.904	1.64
292.281	1.68
292.657	1.7
293.033	1.68
293.41	1.75
293.786	1.77
294.162	1.79
294.538	1.81
294.914	1.87
295.29	1.91
295.666	1.93
296.042	2.03
296.418	2.1
296.794	2.11
297.17	2.2
297.546	2.23
297.921	2.28
298.297	2.36
298.673	2.41
299.048	2.45
299.424	2.5
299.8	2.56
300.175	2.62
300.551	2.66
300.926	2.74
301.302	2.77
301.677	2.82
302.053	2.9
302.428	2.94
302.803	3.02
303.179	3.11
303.554	3.15
303.929	3.18
304.304	3.22
304.68	3.26
305.055	3.34
305.43	3.39
305.805	3.47
306.18	3.47
306.555	3.51
306.93	3.52
307.305	3.53
307.679	3.58
308.054	3.62
308.429	3.62
308.804	3.65
309.179	3.68
309.553	3.71
309.928	3.72
310.303	3.76
310.677	3.79
311.052	3.81
311.426	3.85
311.801	3.88
312.175	3.9
312.55	3.93
312.924	3.95
313.298	3.93
313.673	3.93
314.047	3.94
314.421	3.94
314.795	3.95
315.17	4
315.544	4
315.918	4.01
316.292	4.05
316.666	4.11
317.04	4.15
317.414	4.22
317.788	4.29
318.162	4.37
318.535	4.46
318.909	4.54
319.283	4.62
319.657	4.69
320.03	4.82
320.404	4.91
320.778	5.1
321.151	5.2
321.525	5.39
321.898	5.63
322.272	5.83
322.645	6.01
323.019	6.24
323.392	6.56
323.765	6.88
324.139	7.16
324.512	7.54
324.885	7.94
325.258	8.29
325.632	8.55
326.005	8.79
326.378	8.99
326.751	9.09
327.124	9.08
327.497	9.08
327.87	9.08
328.243	9.03
328.616	8.97
328.988	8.94
329.361	8.94
329.734	8.92
330.107	8.88
330.479	8.85
330.852	8.79
331.225	8.8
331.597	8.68
331.97	8.54
332.342	8.42
332.715	8.27
333.087	8.11
333.46	8.02
333.832	7.89
334.204	7.89
334.577	7.88
334.949	7.85
335.321	7.86
335.693	7.85
336.065	7.83
336.438	7.69
336.81	7.6
337.182	7.52
337.554	7.37
337.926	7.29
338.298	7.23
338.669	7.14
339.041	7.08
339.413	7.04
339.785	6.96
340.157	6.85
340.528	6.8
340.9	6.75
341.272	6.7
341.643	6.69
342.015	6.67
342.386	6.65
342.758	6.7
343.129	6.71
343.501	6.7
343.872	6.68
344.243	6.71
344.615	6.7
344.986	6.62
345.357	6.62
345.728	6.59
346.099	6.6
346.471	6.6
346.842	6.56
347.213	6.54
347.584	6.55
347.955	6.52
348.326	6.46
348.697	6.44
349.067	6.4
349.438	6.37
349.809	6.37
350.18	6.39
350.55	6.4
350.921	6.4
351.292	6.43
351.662	6.46
352.033	6.46
352.403	6.46
352.774	6.47
353.144	6.47
353.515	6.48
353.885	6.47
354.255	6.46
354.626	6.43
354.996	6.4
355.366	6.34
355.736	6.29
356.107	6.26
356.477	6.26
356.847	6.26
357.217	6.24
357.587	6.23
357.957	6.24
358.327	6.21
358.697	6.21
359.066	6.23
359.436	6.25
359.806	6.26
360.176	6.29
360.546	6.31
360.915	6.3
361.285	6.3
361.654	6.29
362.024	6.26
362.393	6.28
362.763	6.3
363.132	6.29
363.502	6.27
363.871	6.29
364.24	6.28
364.61	6.26
364.979	6.26
365.348	6.24
365.717	6.27
366.087	6.27
366.456	6.27
366.825	6.27
367.194	6.3
367.563	6.31
367.932	6.29
368.301	6.3
368.669	6.32
369.038	6.31
369.407	6.33
369.776	6.32
370.145	6.33
370.513	6.34
370.882	6.36
371.25	6.36
371.619	6.35
371.988	6.35
372.356	6.37
372.724	6.37
373.093	6.39
373.461	6.39
373.83	6.4
374.198	6.4
374.566	6.38
374.934	6.38
375.303	6.36
375.671	6.39
376.039	6.41
376.407	6.4
376.775	6.41
377.143	6.42
377.511	6.43
377.879	6.42
378.247	6.44
378.615	6.46
378.982	6.46
379.35	6.47
379.718	6.46
380.086	6.47
380.453	6.47
380.821	6.47
381.188	6.45
381.556	6.45
381.923	6.46
382.291	6.45
382.658	6.44
383.026	6.47
383.393	6.47
383.76	6.49
384.128	6.48
384.495	6.5
384.862	6.51
385.229	6.52
385.596	6.51
385.963	6.52
386.33	6.54
386.697	6.55
387.064	6.52
387.431	6.52
387.798	6.5
388.165	6.51
388.532	6.51
388.899	6.51
389.265	6.5
389.632	6.52
389.999	6.51
390.365	6.5
390.732	6.51
391.098	6.52
391.465	6.53
391.831	6.54
392.198	6.53
392.564	6.51
392.93	6.49
393.297	6.49
393.663	6.5
394.029	6.5
394.395	6.51
394.762	6.52
395.128	6.51
395.494	6.53
395.86	6.55
396.226	6.57
396.592	6.58
396.958	6.6
397.323	6.6
397.689	6.61
398.055	6.65
398.421	6.67
398.787	6.67
399.152	6.68
399.518	6.68
399.883	6.67
400.249	6.69
400.615	6.7
400.98	6.72
401.345	6.73
401.711	6.73
402.076	6.7
402.442	6.7
402.807	6.7
403.172	6.73
403.537	6.7
403.902	6.73
404.268	6.72
404.633	6.75
404.998	6.75
405.363	6.75
405.728	6.78
406.093	6.8
406.457	6.79
406.822	6.8
407.187	6.82
407.552	6.85
407.917	6.84
408.281	6.84
408.646	6.83
409.011	6.86
409.375	6.9
409.74	6.89
410.104	6.91
410.469	6.9
410.833	6.92
411.197	6.92
411.562	6.93
411.926	6.95
412.29	6.96
412.655	6.99
413.019	6.98
413.383	6.98
413.747	7
414.111	7.01
414.475	7.04
414.839	7.05
415.203	7.06
415.567	7.08
415.931	7.1
416.295	7.14
416.658	7.13
417.022	7.14
417.386	7.15
417.749	7.17
418.113	7.17
418.477	7.17
418.84	7.17
419.204	7.18
419.567	7.18
419.931	7.2
420.294	7.19
420.657	7.22
421.021	7.23
421.384	7.23
421.747	7.23
422.11	7.24
422.473	7.26
422.836	7.28
423.199	7.31
423.562	7.32
423.925	7.3
424.288	7.3
424.651	7.29
425.014	7.33
425.377	7.37
425.74	7.38
426.102	7.4
426.465	7.41
426.828	7.43
427.19	7.45
427.553	7.45
427.916	7.47
428.278	7.51
428.641	7.54
429.003	7.53
429.365	7.52
429.728	7.53
430.09	7.54
430.452	7.55
430.814	7.55
431.177	7.54
431.539	7.57
431.901	7.59
432.263	7.6
432.625	7.62
432.987	7.65
433.349	7.68
433.711	7.7
434.072	7.73
434.434	7.76
434.796	7.77
435.158	7.82
435.519	7.84
435.881	7.87
436.243	7.89
436.604	7.9
436.966	7.91
437.327	7.93
437.689	7.94
438.05	7.94
438.411	7.95
438.773	7.97
439.134	7.98
439.495	7.99
439.856	8
440.218	8
440.579	8.01
440.94	8.02
441.301	8.06
441.662	8.1
442.023	8.15
442.384	8.18
442.745	8.21
443.105	8.22
443.466	8.26
443.827	8.28
444.188	8.34
444.548	8.35
444.909	8.39
445.269	8.39
445.63	8.37
445.99	8.37
446.351	8.41
446.711	8.43
447.072	8.46
447.432	8.46
447.792	8.48
448.153	8.49
448.513	8.52
448.873	8.52
449.233	8.53
449.593	8.56
449.953	8.57
450.313	8.54
450.673	8.57
451.033	8.58
451.393	8.6
451.753	8.61
452.113	8.89
452.472	8.9
452.832	8.93
453.192	8.94
453.551	8.93
453.911	8.91
454.271	8.9
454.63	8.87
454.989	8.87
455.349	8.85
455.708	8.86
456.068	8.72
456.427	8.72
456.786	8.72
457.145	8.74
457.505	8.76
457.864	8.8
458.223	8.84
458.582	8.88
458.941	8.92
459.3	8.96
459.659	8.98
460.018	9
460.376	9.03
460.735	9.05
461.094	9.06
461.453	9.07
461.811	9.09
462.17	9.09
462.529	9.11
462.887	9.12
463.246	9.15
463.604	9.16
463.963	9.18
464.321	9.09
464.679	9.11
465.038	9.13
465.396	9.15
465.754	9.16
466.112	9.19
466.47	9.2
466.828	9.22
467.186	9.23
467.544	9.25
467.902	9.26
468.26	9.42
468.618	9.44
468.976	9.46
469.334	9.48
469.692	9.49
470.049	9.52
470.407	9.54
470.765	9.56
471.122	9.58
471.48	9.61
471.837	9.64
472.195	9.68
472.552	9.73
472.909	9.76
473.267	9.78
473.624	9.81
473.981	9.83
474.338	9.84
474.696	9.84
475.053	9.85
475.41	9.86
475.767	9.88
476.124	9.88
476.481	9.9
476.838	9.91
477.194	9.92
477.551	9.93
477.908	9.95
478.265	9.96
478.621	10.01
478.978	10.04
479.335	10.08
479.691	10.1
480.048	10.12
480.404	10.12
480.761	10.16
481.117	10.2
481.473	10.21
481.83	10.21
482.186	10.24
482.542	10.24
482.898	10.24
483.255	10.23
483.611	10.24
483.967	10.25
484.323	10.27
484.679	10.28
485.035	10.29
485.39	10.31
485.746	10.34
486.102	10.36
486.458	10.37
486.814	10.4
487.169	10.42
487.525	10.44
487.88	10.45
488.236	10.48
488.591	10.49
488.947	10.48
489.302	10.5
489.658	10.5
490.013	10.5
490.368	10.5
490.723	10.49
491.079	10.49
491.434	10.5
491.789	10.51
492.144	10.5
492.499	10.51
492.854	10.53
493.209	10.54
493.564	10.57
493.919	10.57
494.273	10.59
494.628	10.6
494.983	10.61
495.338	10.61
495.692	10.63
496.047	10.65
496.401	10.64
496.756	10.64
497.11	10.62
497.465	10.59
497.819	10.6
498.173	10.59
498.528	10.6
498.882	10.6
499.236	10.62
499.59	10.62
499.944	10.62
500.298	10.64
500.652	10.64
501.006	10.65
501.36	10.66
501.714	10.66
502.068	10.66
502.422	10.66
502.776	10.69
503.129	10.7
503.483	10.71
503.837	10.72
504.19	10.72
504.544	10.74
504.897	10.74
505.251	10.74
505.604	10.74
505.958	10.74
506.311	10.73
506.664	10.7
507.017	10.68
507.371	10.66
507.724	10.64
508.077	10.62
508.43	10.6
508.783	10.6
509.136	10.61
509.489	10.6
509.842	10.6
510.195	10.6
510.547	10.58
510.9	10.58
511.253	10.55
511.606	10.56
511.958	10.54
512.311	10.52
512.663	10.48
513.016	10.44
513.368	10.41
513.721	10.39
514.073	10.36
514.425	10.36
514.778	10.34
515.13	10.34
515.482	10.32
515.834	10.33
516.186	10.33
516.538	10.33
516.89	10.34
517.242	10.35
517.594	10.34
517.946	10.35
518.298	10.34
518.65	10.34
519.001	10.32
519.353	10.31
519.705	10.29
520.056	10.28
520.408	10.27
520.759	10.26
521.111	10.23
521.462	10.22
521.814	10.2
522.165	10.21
522.516	10.19
522.868	10.17
523.219	10.15
523.57	10.12
523.921	10.1
524.272	10.05
524.623	10.03
524.974	10.01
525.325	10.01
525.676	9.98
526.027	9.95
526.378	9.94
526.728	9.93
527.079	9.93
527.43	9.91
527.78	9.87
528.131	9.85
528.481	9.83
528.832	9.79
529.182	9.75
529.533	9.72
529.883	9.69
530.233	9.66
530.584	9.65
530.934	9.62
531.284	9.6
531.634	9.58
531.984	9.58
532.334	9.58
532.684	9.58
533.034	9.58
533.384	9.56
533.734	9.54
534.084	9.5
534.434	9.48
534.783	9.44
535.133	9.4
535.483	9.39
535.832	9.35
536.182	9.31
536.531	9.28
536.881	9.26
537.23	9.26
537.58	9.24
537.929	9.22
538.278	10.13
538.628	10.11
538.977	10.07
539.326	10.05
539.675	10.03
540.024	10
540.373	9.98
540.722	9.93
541.071	9.89
541.42	9.87
541.769	9.85
542.117	8.89
542.466	8.84
542.815	8.83
543.163	8.81
543.512	8.75
543.861	8.75
544.209	8.7
544.558	8.67
544.906	8.67
545.254	8.63
545.603	8.61
545.951	8.58
546.299	8.59
546.647	8.61
546.996	8.6
547.344	8.61
547.692	8.58
548.04	8.57
548.388	8.56
548.736	8.52
549.083	8.53
549.431	8.5
549.779	8.47
550.127	8.41
550.475	8.35
550.822	8.31
551.17	8.3
551.517	8.27
551.865	8.24
552.212	8.23
552.56	8.22
552.907	8.18
553.254	8.17
553.602	8.14
553.949	8.16
554.296	8.12
554.643	8.08
554.99	8.03
555.337	7.99
555.684	7.98
556.031	7.92
556.378	7.89
556.725	7.84
557.072	7.79
557.419	7.78
557.765	7.72
558.112	7.71
558.459	7.69
558.805	7.65
559.152	7.65
559.498	7.6
559.845	7.61
560.191	7.6
560.538	7.58
560.884	7.57
561.23	7.53
561.576	7.5
561.923	7.49
562.269	7.47
562.615	7.46
562.961	7.43
563.307	7.41
563.653	7.39
563.999	7.37
564.344	7.35
564.69	7.31
565.036	7.3
565.382	7.27
565.727	7.22
566.073	7.21
566.419	7.19
566.764	7.16
567.11	7.14
567.455	7.1
567.8	7.05
568.146	7.04
568.491	7
568.836	6.96
569.181	6.95
569.527	6.91
569.872	6.86
570.217	6.81
570.562	6.78
570.907	6.77
571.252	6.73
571.597	6.71
571.941	6.66
572.286	6.65
572.631	6.63
572.976	6.61
573.32	6.57
573.665	6.56
574.009	6.58
574.354	6.59
574.698	6.59
575.043	6.6
575.387	6.6
575.731	6.59
576.076	6.57
576.42	6.55
576.764	6.53
577.108	6.5
577.452	6.5
577.796	6.5
578.14	6.48
578.484	6.46
578.828	6.46
579.172	6.42
579.516	6.41
579.86	6.41
580.203	6.42
580.547	6.44
580.891	6.43
581.234	6.43
581.578	6.41
581.921	6.38
582.264	6.31
582.608	6.31
582.951	6.31
583.294	6.32
583.638	6.33
583.981	6.33
584.324	6.33
584.667	6.32
585.01	6.31
585.353	6.26
585.696	6.26
586.039	6.27
586.382	6.27
586.725	6.27
587.067	6.27
587.41	6.26
587.753	6.21
588.095	6.22
588.438	6.22
588.781	6.23
589.123	6.22
589.465	6.21
589.808	6.21
590.15	6.21
590.492	6.19
590.835	6.17
591.177	6.15
591.519	6.14
591.861	6.14
592.203	6.14
592.545	6.15
592.887	6.15
593.229	6.14
593.571	6.11
593.913	6.11
594.254	6.1
594.596	6.11
594.938	6.03
595.279	6.02
595.621	6.01
595.963	5.98
596.304	5.97
596.645	5.96
596.987	5.95
597.328	5.95
597.669	5.97
598.011	5.95
598.352	5.92
598.693	5.9
599.034	5.87
599.375	5.87
599.716	5.84
600.057	5.86
600.398	5.86
600.739	5.87
601.08	5.89
601.42	5.9
601.761	5.9
602.102	5.95
602.442	5.97
602.783	5.97
603.123	6
603.464	5.99
603.804	5.97
604.145	5.97
604.485	5.95
604.825	5.92
605.166	5.89
605.506	5.91
605.846	5.92
606.186	5.92
606.526	5.92
606.866	5.93
607.206	5.93
607.546	5.89
607.886	5.87
608.225	5.84
608.565	5.82
608.905	5.79
609.245	5.78
609.584	5.73
609.924	5.74
610.263	5.71
610.603	5.68
610.942	5.68
611.281	5.68
611.621	5.68
611.96	5.68
612.299	5.71
612.638	5.74
612.978	5.74
613.317	5.73
613.656	5.73
613.995	5.73
614.334	5.72
614.672	5.72
615.011	5.71
615.35	5.71
615.689	5.7
616.027	5.68
616.366	5.67
616.705	5.67
617.043	5.66
617.382	5.66
617.72	5.65
618.059	5.6
618.397	5.6
618.735	5.6
619.073	5.57
619.412	5.55
619.75	5.51
620.088	5.48
620.426	5.5
620.764	5.42
621.102	5.41
621.44	5.4
621.778	5.36
622.115	5.34
622.453	5.34
622.791	5.35
623.129	5.31
623.466	5.31
623.804	5.3
624.141	5.29
624.479	5.28
624.816	5.24
625.153	5.24
625.491	5.25
625.828	5.24
626.165	5.23
626.502	5.23
626.84	5.2
627.177	5.23
627.514	5.24
627.851	5.22
628.188	5.22
628.524	5.19
628.861	5.21
629.198	5.17
629.535	5.14
629.871	5.11
630.208	5.12
630.545	5.08
630.881	5.03
631.218	4.98
631.554	5
631.89	4.99
632.227	4.99
632.563	5
632.899	5.02
633.235	4.98
633.572	4.98
633.908	4.96
634.244	5.02
634.58	5.04
634.916	5.09
635.251	5.11
635.587	5.09
635.923	5.08
636.259	5.07
636.595	5.09
636.93	5.15
637.266	5.15
637.601	5.15
637.937	5.05
638.272	5.03
638.608	5
638.943	4.96
639.278	4.93
639.613	4.82
639.949	4.78
640.284	4.71
640.619	4.68
640.954	4.67
641.289	4.65
641.624	4.69
641.959	4.75
642.294	4.7
642.628	4.65
642.963	4.68
643.298	4.74
643.632	4.84
643.967	4.82
644.302	4.84
644.636	4.82
644.971	4.83
645.305	4.81
645.639	4.72
645.974	4.72
646.308	4.75
646.642	4.67
646.976	4.71
647.31	4.61
647.644	4.67
647.978	4.67
648.312	4.66
648.646	4.71
648.98	4.71
649.314	4.68
649.647	4.69
649.981	4.62
650.315	4.62
650.648	4.58
650.982	4.6
651.315	4.54
651.649	4.52
651.982	4.54
652.316	4.53
652.649	4.49
652.982	4.54
653.315	4.53
653.648	4.61
653.982	4.64
654.315	4.66
654.648	4.64
654.981	4.69
655.313	4.67
655.646	4.66
655.979	4.63
656.312	4.67
656.644	4.67
656.977	4.64
657.31	4.53
657.642	4.48
657.975	4.44
658.307	4.41
658.64	4.34
658.972	4.33
659.304	4.3
659.636	4.28
659.969	4.19
660.301	4.11
660.633	4.14
660.965	4.2
661.297	4.27
661.629	4.29
661.961	4.26
662.292	4.3
662.624	4.32
662.956	4.31
663.288	4.37
663.619	4.49
663.951	4.57
664.282	4.53
664.614	4.52
664.945	4.51
665.276	4.43
665.608	4.46
665.939	4.4
666.27	4.33
666.601	4.33
666.933	4.29
667.264	4.18
667.595	4.14
667.926	4.07
668.256	3.99
668.587	3.98
668.918	4.02
669.249	3.99
669.58	4.05
669.91	4.09
670.241	4.08
670.571	4.1
670.902	4.02
671.232	4.04
671.563	4.08
671.893	4.17
672.223	4.13
672.554	4.12
672.884	4.11
673.214	4.08
673.544	4.1
673.874	4.11
674.204	4.07
674.534	4.23
674.864	4.22
675.194	4.27
675.524	4.21
675.853	4.16
676.183	4.17
676.513	4.24
676.842	4.24
677.172	4.26
677.501	4.32
677.831	4.3
678.16	4.23
678.489	4.25
678.819	4.28
679.148	4.42
679.477	4.51
679.806	4.44
680.135	4.38
680.464	4.4
680.793	4.36
681.122	4.25
681.451	4.25
681.78	4.2
682.108	4.18
682.437	4.01
682.766	3.88
683.094	3.75
683.423	3.78
683.751	3.83
684.08	3.73
684.408	3.69
684.737	3.74
685.065	3.66
685.393	3.8
685.721	3.8
686.049	3.87
686.377	3.9
686.705	4.05
687.033	4.13
687.361	4.08
687.689	4.16
688.017	4.18
688.345	4.14
688.673	4.17
689.0	4.1
689.328	4.06
689.655	4.16
689.983	4.17
690.31	4.08
690.638	4.05
690.965	4.02
691.292	4.01
691.62	4.04
691.947	4.01
692.274	4.08
692.601	4.1
692.928	4.13
693.255	4.09
