Data from groin1_Reflection__0__12-02-13-880.txt Node

Date: Thu Aug 04 12:02:13 AEST 2022
User: kathy
Spectrometer: JAZA2503
Trigger mode: 0
Integration Time (sec): 2.883200E-1
Scans to average: 10
Electric dark correction enabled: true
Nonlinearity correction enabled: true
Boxcar width: 5
XAxis mode: Wavelengths
Number of Pixels in Spectrum: 2048
>>>>>Begin Spectral Data<<<<<
189.467	-135.12
189.852	-322.24
190.237	-5700.33
190.622	-311.27
191.007	-88.88
191.392	-86.75
191.777	198.56
192.162	-147.44
192.546	-165.52
192.931	-324.96
193.316	-308.85
193.701	-368.7
194.086	232.14
194.47	163.79
194.855	370.79
195.24	8074.18
195.624	382.33
196.009	-249.43
196.393	-204.91
196.778	919.88
197.163	231.33
197.547	106.14
197.931	103.07
198.316	100.32
198.7	76.5
199.085	55.75
199.469	56.11
199.853	53.6
200.237	56.53
200.622	51.86
201.006	47.22
201.39	48.49
201.774	49
202.158	45.8
202.542	41.81
202.926	35.61
203.31	38.71
203.694	37.15
204.078	27.59
204.462	20.44
204.846	20.69
205.23	21.44
205.614	19.72
205.998	15.33
206.381	22.46
206.765	22.7
207.149	23.15
207.532	22.04
207.916	22.11
208.3	26.76
208.683	28.67
209.067	26.76
209.45	29.69
209.834	30.29
210.217	33.9
210.601	32.15
210.984	30.91
211.367	35.98
211.751	35.49
212.134	33.51
212.517	32.66
212.901	35.4
213.284	39.93
213.667	42.02
214.05	39.33
214.433	37.14
214.816	33.53
215.199	36.73
215.582	30.87
215.965	29.86
216.348	28.25
216.731	29.93
217.114	26.75
217.497	19.41
217.88	15.29
218.262	12.92
218.645	14.88
219.028	14.04
219.411	12.04
219.793	15.19
220.176	17.12
220.559	18.79
220.941	16.14
221.324	14.3
221.706	15.08
222.089	13.78
222.471	16.08
222.853	12.37
223.236	13.7
223.618	11.59
224	11.15
224.383	8.23
224.765	8.91
225.147	8.87
225.529	8.36
225.912	7.97
226.294	7.89
226.676	6.79
227.058	6.59
227.44	5.69
227.822	5.2
228.204	4.58
228.586	4.15
228.968	3.52
229.349	3.4
229.731	3.69
230.113	3.08
230.495	3.05
230.877	2.72
231.258	2.9
231.64	2.78
232.022	2.52
232.403	2.47
232.785	3.31
233.166	3.31
233.548	3.36
233.929	3.05
234.311	3.2
234.692	2.94
235.073	3.25
235.455	3.13
235.836	3.02
236.217	3.18
236.599	2.6
236.98	1.76
237.361	1.58
237.742	1.18
238.123	1
238.504	1.18
238.885	1.03
239.266	0.67
239.647	0.61
240.028	0.81
240.409	0.99
240.79	1.4
241.171	1.6
241.552	1.64
241.933	1.78
242.313	1.72
242.694	1.76
243.075	2.05
243.456	2.03
243.836	2.17
244.217	2.15
244.597	2.17
244.978	2.11
245.358	2.21
245.739	2.2
246.119	2.04
246.5	2.07
246.88	1.99
247.26	1.83
247.641	1.81
248.021	1.74
248.401	1.63
248.781	1.57
249.162	1.59
249.542	1.49
249.922	1.48
250.302	1.52
250.682	1.43
251.062	1.4
251.442	1.25
251.822	1.3
252.202	1.09
252.582	1.13
252.961	1.17
253.341	1.12
253.721	1.06
254.101	0.98
254.48	1.01
254.86	1.03
255.24	1.11
255.619	1.41
255.999	1.29
256.378	1.35
256.758	1.41
257.137	1.36
257.517	1.36
257.896	1.39
258.276	1.3
258.655	1.27
259.034	1.14
259.414	1.02
259.793	0.84
260.172	0.84
260.551	0.81
260.93	0.73
261.309	0.71
261.688	0.73
262.068	0.72
262.447	0.79
262.825	0.73
263.204	0.8
263.583	0.91
263.962	1.08
264.341	1.17
264.72	1.16
265.099	1.2
265.477	1.21
265.856	1.14
266.235	1.18
266.613	1.09
266.992	1.14
267.371	1.11
267.749	1.14
268.128	1
268.506	1.01
268.884	1.04
269.263	1
269.641	0.97
270.02	0.95
270.398	0.91
270.776	0.94
271.154	0.95
271.533	0.94
271.911	0.85
272.289	0.86
272.667	0.83
273.045	0.81
273.423	0.85
273.801	0.88
274.179	0.87
274.557	0.85
274.935	0.88
275.313	0.78
275.69	0.79
276.068	0.78
276.446	0.76
276.824	0.75
277.201	0.78
277.579	0.75
277.957	0.72
278.334	0.67
278.712	0.64
279.089	0.61
279.467	0.71
279.844	0.75
280.222	0.8
280.599	0.88
280.976	0.86
281.354	0.82
281.731	0.85
282.108	0.92
282.485	0.96
282.863	1.01
283.24	1.04
283.617	1
283.994	0.96
284.371	0.92
284.748	0.89
285.125	0.91
285.502	0.92
285.879	0.89
286.256	0.85
286.633	0.88
287.009	0.86
287.386	0.88
287.763	0.96
288.139	1.02
288.516	1.08
288.893	1.12
289.269	1.12
289.646	1.21
290.022	1.25
290.399	1.25
290.775	1.27
291.152	1.31
291.528	1.32
291.904	1.29
292.281	1.26
292.657	1.26
293.033	1.29
293.41	1.35
293.786	1.35
294.162	1.38
294.538	1.47
294.914	1.52
295.29	1.52
295.666	1.55
296.042	1.59
296.418	1.64
296.794	1.69
297.17	1.7
297.546	1.75
297.921	1.79
298.297	1.84
298.673	1.86
299.048	1.89
299.424	1.96
299.8	2.01
300.175	2.08
300.551	2.13
300.926	2.18
301.302	2.25
301.677	2.27
302.053	2.34
302.428	2.35
302.803	2.39
303.179	2.42
303.554	2.47
303.929	2.55
304.304	2.58
304.68	2.63
305.055	2.69
305.43	2.73
305.805	2.78
306.18	2.78
306.555	2.86
306.93	2.91
307.305	2.94
307.679	2.96
308.054	2.91
308.429	2.88
308.804	2.89
309.179	2.87
309.553	2.86
309.928	2.89
310.303	2.93
310.677	2.93
311.052	2.93
311.426	2.92
311.801	2.93
312.175	2.96
312.55	3.01
312.924	3.02
313.298	3.02
313.673	3.07
314.047	3.06
314.421	3.04
314.795	3.08
315.17	3.09
315.544	3.11
315.918	3.15
316.292	3.2
316.666	3.24
317.04	3.28
317.414	3.37
317.788	3.42
318.162	3.45
318.535	3.52
318.909	3.56
319.283	3.6
319.657	3.69
320.03	3.73
320.404	3.77
320.778	3.84
321.151	3.94
321.525	4.06
321.898	4.22
322.272	4.39
322.645	4.55
323.019	4.74
323.392	4.91
323.765	5.15
324.139	5.34
324.512	5.57
324.885	5.78
325.258	5.96
325.632	6.17
326.005	6.29
326.378	6.38
326.751	6.48
327.124	6.52
327.497	6.53
327.87	6.48
328.243	6.5
328.616	6.55
328.988	6.51
329.361	6.48
329.734	6.48
330.107	6.43
330.479	6.36
330.852	6.31
331.225	6.32
331.597	6.28
331.97	6.23
332.342	6.15
332.715	6.08
333.087	5.98
333.46	5.87
333.832	5.83
334.204	5.8
334.577	5.79
334.949	5.75
335.321	5.66
335.693	5.61
336.065	5.51
336.438	5.37
336.81	5.3
337.182	5.27
337.554	5.23
337.926	5.16
338.298	5.1
338.669	5.01
339.041	4.96
339.413	4.91
339.785	4.85
340.157	4.78
340.528	4.72
340.9	4.64
341.272	4.58
341.643	4.55
342.015	4.54
342.386	4.58
342.758	4.64
343.129	4.69
343.501	4.73
343.872	4.76
344.243	4.78
344.615	4.73
344.986	4.72
345.357	4.69
345.728	4.69
346.099	4.67
346.471	4.63
346.842	4.62
347.213	4.61
347.584	4.59
347.955	4.58
348.326	4.53
348.697	4.49
349.067	4.48
349.438	4.48
349.809	4.51
350.18	4.6
350.55	4.63
350.921	4.65
351.292	4.69
351.662	4.71
352.033	4.72
352.403	4.73
352.774	4.77
353.144	4.75
353.515	4.75
353.885	4.74
354.255	4.71
354.626	4.71
354.996	4.71
355.366	4.7
355.736	4.71
356.107	4.7
356.477	4.71
356.847	4.69
357.217	4.72
357.587	4.74
357.957	4.78
358.327	4.81
358.697	4.84
359.066	4.86
359.436	4.89
359.806	4.91
360.176	4.94
360.546	4.95
360.915	4.96
361.285	4.97
361.654	4.97
362.024	4.99
362.393	4.99
362.763	5.01
363.132	5.03
363.502	5.05
363.871	5.08
364.24	5.11
364.61	5.14
364.979	5.18
365.348	5.22
365.717	5.25
366.087	5.26
366.456	5.31
366.825	5.33
367.194	5.36
367.563	5.39
367.932	5.42
368.301	5.45
368.669	5.48
369.038	5.52
369.407	5.56
369.776	5.6
370.145	5.66
370.513	5.69
370.882	5.72
371.25	5.76
371.619	5.83
371.988	5.88
372.356	5.94
372.724	6.01
373.093	6.06
373.461	6.1
373.83	6.15
374.198	6.19
374.566	6.23
374.934	6.28
375.303	6.31
375.671	6.34
376.039	6.38
376.407	6.43
376.775	6.44
377.143	6.48
377.511	6.54
377.879	6.6
378.247	6.67
378.615	6.74
378.982	6.82
379.35	6.9
379.718	6.96
380.086	7.02
380.453	7.07
380.821	7.15
381.188	7.18
381.556	7.23
381.923	7.27
382.291	7.3
382.658	7.32
383.026	7.35
383.393	7.41
383.76	7.46
384.128	7.51
384.495	7.57
384.862	7.62
385.229	7.7
385.596	7.76
385.963	7.82
386.33	7.89
386.697	7.97
387.064	8.03
387.431	8.09
387.798	8.14
388.165	8.21
388.532	8.25
388.899	8.27
389.265	8.29
389.632	8.31
389.999	8.34
390.365	8.38
390.732	8.4
391.098	8.43
391.465	8.46
391.831	8.49
392.198	8.51
392.564	8.54
392.93	8.6
393.297	8.65
393.663	8.68
394.029	8.73
394.395	8.78
394.762	8.81
395.128	8.85
395.494	8.89
395.86	8.93
396.226	8.96
396.592	8.98
396.958	9.02
397.323	9.05
397.689	9.1
398.055	9.13
398.421	9.15
398.787	9.2
399.152	9.26
399.518	9.3
399.883	9.35
400.249	9.39
400.615	9.45
400.98	9.47
401.345	9.5
401.711	9.51
402.076	9.54
402.442	9.57
402.807	9.57
403.172	9.56
403.537	9.58
403.902	9.58
404.268	9.61
404.633	9.63
404.998	9.65
405.363	9.68
405.728	9.7
406.093	9.73
406.457	9.73
406.822	9.78
407.187	9.82
407.552	9.82
407.917	9.83
408.281	9.85
408.646	9.88
409.011	9.91
409.375	9.92
409.74	9.93
410.104	9.95
410.469	9.98
410.833	10
411.197	10.01
411.562	10.04
411.926	10.05
412.29	10.06
412.655	10.07
413.019	10.07
413.383	10.09
413.747	10.13
414.111	10.15
414.475	10.18
414.839	10.2
415.203	10.22
415.567	10.24
415.931	10.26
416.295	10.32
416.658	10.34
417.022	10.36
417.386	10.36
417.749	10.37
418.113	10.39
418.477	10.38
418.84	10.4
419.204	10.43
419.567	10.44
419.931	10.47
420.294	10.45
420.657	10.49
421.021	10.52
421.384	10.57
421.747	10.58
422.11	10.61
422.473	10.64
422.836	10.68
423.199	10.69
423.562	10.72
423.925	10.74
424.288	10.75
424.651	10.77
425.014	10.77
425.377	10.79
425.74	10.81
426.102	10.84
426.465	10.87
426.828	10.87
427.19	10.89
427.553	10.92
427.916	10.95
428.278	10.99
428.641	10.98
429.003	11
429.365	11.01
429.728	11.04
430.09	11.01
430.452	11.01
430.814	10.99
431.177	11
431.539	11
431.901	11
432.263	11.03
432.625	11.06
432.987	11.1
433.349	11.14
433.711	11.16
434.072	11.22
434.434	11.25
434.796	11.33
435.158	11.41
435.519	11.46
435.881	11.5
436.243	11.51
436.604	11.53
436.966	11.55
437.327	11.58
437.689	11.6
438.05	11.61
438.411	11.64
438.773	11.64
439.134	11.64
439.495	11.67
439.856	11.7
440.218	11.73
440.579	11.78
440.94	11.81
441.301	11.87
441.662	11.92
442.023	11.96
442.384	12
442.745	12.07
443.105	12.09
443.466	12.13
443.827	12.14
444.188	12.16
444.548	12.18
444.909	12.22
445.269	12.22
445.63	12.25
445.99	12.27
446.351	12.3
446.711	12.3
447.072	12.32
447.432	12.34
447.792	12.39
448.153	12.43
448.513	12.45
448.873	12.46
449.233	12.47
449.593	12.47
449.953	12.49
450.313	12.5
450.673	12.51
451.033	12.54
451.393	12.56
451.753	12.57
452.113	13.02
452.472	13.02
452.832	13.02
453.192	13.02
453.551	13.01
453.911	13.01
454.271	13.02
454.63	13.03
454.989	13.04
455.349	13.07
455.708	13.08
456.068	12.86
456.427	12.89
456.786	12.92
457.145	12.97
457.505	13.02
457.864	13.07
458.223	13.13
458.582	13.19
458.941	13.26
459.3	13.31
459.659	13.36
460.018	13.4
460.376	13.44
460.735	13.47
461.094	13.5
461.453	13.52
461.811	13.56
462.17	13.59
462.529	13.61
462.887	13.62
463.246	13.64
463.604	13.68
463.963	13.71
464.321	13.63
464.679	13.65
465.038	13.66
465.396	13.7
465.754	13.72
466.112	13.75
466.47	13.79
466.828	13.83
467.186	13.86
467.544	13.9
467.902	13.94
468.26	14.14
468.618	14.2
468.976	14.26
469.334	14.3
469.692	14.32
470.049	14.34
470.407	14.37
470.765	14.39
471.122	14.44
471.48	14.49
471.837	14.54
472.195	14.59
472.552	14.65
472.909	14.71
473.267	14.79
473.624	14.86
473.981	14.91
474.338	14.95
474.696	15.03
475.053	15.07
475.41	15.14
475.767	15.2
476.124	15.26
476.481	15.3
476.838	15.34
477.194	15.4
477.551	15.46
477.908	15.53
478.265	15.59
478.621	15.63
478.978	15.69
479.335	15.76
479.691	15.84
480.048	15.89
480.404	15.97
480.761	16.03
481.117	16.09
481.473	16.14
481.83	16.23
482.186	16.29
482.542	16.37
482.898	16.43
483.255	16.49
483.611	16.54
483.967	16.6
484.323	16.67
484.679	16.74
485.035	16.81
485.39	16.88
485.746	16.92
486.102	16.99
486.458	17.04
486.814	17.11
487.169	17.18
487.525	17.23
487.88	17.31
488.236	17.38
488.591	17.44
488.947	17.5
489.302	17.56
489.658	17.63
490.013	17.7
490.368	17.76
490.723	17.82
491.079	17.87
491.434	17.94
491.789	17.99
492.144	18.05
492.499	18.11
492.854	18.17
493.209	18.25
493.564	18.32
493.919	18.38
494.273	18.44
494.628	18.51
494.983	18.55
495.338	18.62
495.692	18.68
496.047	18.71
496.401	18.75
496.756	18.8
497.11	18.83
497.465	18.83
497.819	18.86
498.173	18.92
498.528	18.97
498.882	19.03
499.236	19.1
499.59	19.16
499.944	19.24
500.298	19.33
500.652	19.38
501.006	19.44
501.36	19.53
501.714	19.58
502.068	19.62
502.422	19.67
502.776	19.71
503.129	19.77
503.483	19.83
503.837	19.91
504.19	19.98
504.544	20.06
504.897	20.11
505.251	20.15
505.604	20.17
505.958	20.2
506.311	20.23
506.664	20.26
507.017	20.25
507.371	20.24
507.724	20.21
508.077	20.18
508.43	20.17
508.783	20.19
509.136	20.22
509.489	20.27
509.842	20.31
510.195	20.33
510.547	20.37
510.9	20.42
511.253	20.47
511.606	20.5
511.958	20.55
512.311	20.59
512.663	20.6
513.016	20.58
513.368	20.59
513.721	20.59
514.073	20.6
514.425	20.61
514.778	20.61
515.13	20.62
515.482	20.64
515.834	20.65
516.186	20.68
516.538	20.72
516.89	20.79
517.242	20.87
517.594	20.94
517.946	21
518.298	21.05
518.65	21.09
519.001	21.13
519.353	21.17
519.705	21.2
520.056	21.22
520.408	21.21
520.759	21.2
521.111	21.17
521.462	21.15
521.814	21.17
522.165	21.2
522.516	21.25
522.868	21.26
523.219	21.27
523.57	21.29
523.921	21.31
524.272	21.34
524.623	21.38
524.974	21.39
525.325	21.41
525.676	21.38
526.027	21.36
526.378	21.35
526.728	21.35
527.079	21.39
527.43	21.41
527.78	21.41
528.131	21.42
528.481	21.4
528.832	21.43
529.182	21.42
529.533	21.47
529.883	21.52
530.233	21.56
530.584	21.6
530.934	21.58
531.284	21.58
531.634	21.58
531.984	21.59
532.334	21.64
532.684	21.66
533.034	21.71
533.384	21.74
533.734	21.73
534.084	21.73
534.434	21.73
534.783	21.76
535.133	21.78
535.483	21.79
535.832	21.79
536.182	21.76
536.531	21.78
536.881	21.75
537.23	21.74
537.58	21.75
537.929	21.75
538.278	22.89
538.628	22.89
538.977	22.87
539.326	22.88
539.675	22.88
540.024	22.91
540.373	22.91
540.722	22.93
541.071	22.93
541.42	22.95
541.769	22.97
542.117	21.84
542.466	21.88
542.815	21.91
543.163	21.91
543.512	21.95
543.861	21.96
544.209	21.96
544.558	21.98
544.906	22
545.254	22.01
545.603	22.04
545.951	22.07
546.299	22.1
546.647	22.15
546.996	22.17
547.344	22.18
547.692	22.19
548.04	22.22
548.388	22.24
548.736	22.26
549.083	22.27
549.431	22.25
549.779	22.23
550.127	22.2
550.475	22.16
550.822	22.16
551.17	22.16
551.517	22.18
551.865	22.18
552.212	22.19
552.56	22.2
552.907	22.21
553.254	22.22
553.602	22.22
553.949	22.25
554.296	22.24
554.643	22.23
554.99	22.22
555.337	22.2
555.684	22.18
556.031	22.15
556.378	22.12
556.725	22.12
557.072	22.08
557.419	22.1
557.765	22.07
558.112	22.08
558.459	22.08
558.805	22.08
559.152	22.08
559.498	22.06
559.845	22.07
560.191	22.06
560.538	22.07
560.884	22.07
561.23	22.03
561.576	22
561.923	21.94
562.269	21.95
562.615	21.96
562.961	21.95
563.307	21.97
563.653	21.99
563.999	21.96
564.344	21.98
564.69	22.01
565.036	22.06
565.382	22.09
565.727	22.14
566.073	22.12
566.419	22.13
566.764	22.14
567.11	22.12
567.455	22.09
567.8	22.09
568.146	22.01
568.491	21.99
568.836	21.96
569.181	21.95
569.527	21.94
569.872	21.96
570.217	21.93
570.562	21.9
570.907	21.9
571.252	21.89
571.597	21.9
571.941	21.93
572.286	21.94
572.631	21.94
572.976	21.94
573.32	21.94
573.665	21.94
574.009	21.96
574.354	21.96
574.698	21.97
575.043	21.97
575.387	21.98
575.731	21.98
576.076	22
576.42	22.01
576.764	22
577.108	21.98
577.452	21.98
577.796	21.97
578.14	21.97
578.484	21.96
578.828	21.96
579.172	21.96
579.516	21.9
579.86	21.91
580.203	21.9
580.547	21.88
580.891	21.85
581.234	21.84
581.578	21.82
581.921	21.76
582.264	21.75
582.608	21.71
582.951	21.7
583.294	21.69
583.638	21.68
583.981	21.66
584.324	21.69
584.667	21.69
585.01	21.68
585.353	21.67
585.696	21.68
586.039	21.69
586.382	21.69
586.725	21.68
587.067	21.68
587.41	21.67
587.753	21.67
588.095	21.68
588.438	21.7
588.781	21.7
589.123	21.71
589.465	21.71
589.808	21.72
590.15	21.73
590.492	21.72
590.835	21.69
591.177	21.67
591.519	21.66
591.861	21.65
592.203	21.63
592.545	21.63
592.887	21.63
593.229	21.62
593.571	21.6
593.913	21.6
594.254	21.6
594.596	21.62
594.938	21.63
595.279	21.63
595.621	21.59
595.963	21.58
596.304	21.57
596.645	21.56
596.987	21.56
597.328	21.52
597.669	21.5
598.011	21.5
598.352	21.49
598.693	21.52
599.034	21.53
599.375	21.53
599.716	21.53
600.057	21.52
600.398	21.51
600.739	21.5
601.08	21.48
601.42	21.46
601.761	21.42
602.102	21.42
602.442	21.39
602.783	21.39
603.123	21.39
603.464	21.38
603.804	21.38
604.145	21.38
604.485	21.38
604.825	21.39
605.166	21.39
605.506	21.41
605.846	21.41
606.186	21.39
606.526	21.35
606.866	21.35
607.206	21.35
607.546	21.34
607.886	21.33
608.225	21.32
608.565	21.29
608.905	21.28
609.245	21.28
609.584	21.26
609.924	21.25
610.263	21.25
610.603	21.25
610.942	21.24
611.281	21.23
611.621	21.19
611.96	21.18
612.299	21.17
612.638	21.17
612.978	21.13
613.317	21.11
613.656	21.09
613.995	21.07
614.334	21.04
614.672	21.03
615.011	21.02
615.35	21
615.689	21
616.027	21
616.366	21
616.705	21
617.043	20.98
617.382	20.95
617.72	20.9
618.059	20.85
618.397	20.82
618.735	20.8
619.073	20.8
619.412	20.78
619.75	20.74
620.088	20.72
620.426	20.71
620.764	20.7
621.102	20.67
621.44	20.68
621.778	20.67
622.115	20.64
622.453	20.63
622.791	20.62
623.129	20.6
623.466	20.57
623.804	20.56
624.141	20.55
624.479	20.56
624.816	20.56
625.153	20.57
625.491	20.58
625.828	20.58
626.165	20.59
626.502	20.57
626.84	20.55
627.177	20.54
627.514	20.52
627.851	20.55
628.188	20.54
628.524	20.5
628.861	20.48
629.198	20.42
629.535	20.36
629.871	20.33
630.208	20.32
630.545	20.31
630.881	20.3
631.218	20.3
631.554	20.3
631.89	20.28
632.227	20.29
632.563	20.32
632.899	20.38
633.235	20.43
633.572	20.42
633.908	20.41
634.244	20.42
634.58	20.35
634.916	20.34
635.251	20.24
635.587	20.18
635.923	20.17
636.259	20.14
636.595	20.06
636.93	20.01
637.266	20.01
637.601	19.96
637.937	19.93
638.272	19.96
638.608	19.92
638.943	19.9
639.278	19.93
639.613	19.88
639.949	19.86
640.284	19.85
640.619	19.85
640.954	19.8
641.289	19.77
641.624	19.77
641.959	19.71
642.294	19.65
642.628	19.65
642.963	19.6
643.298	19.56
643.632	19.58
643.967	19.58
644.302	19.51
644.636	19.48
644.971	19.47
645.305	19.38
645.639	19.38
645.974	19.36
646.308	19.34
646.642	19.33
646.976	19.35
647.31	19.28
647.644	19.25
647.978	19.22
648.312	19.17
648.646	19.18
648.98	19.25
649.314	19.25
649.647	19.24
649.981	19.21
650.315	19.2
650.648	19.15
650.982	19.11
651.315	19.1
651.649	19.13
651.982	19.17
652.316	19.15
652.649	19.12
652.982	19.1
653.315	19.15
653.648	19.2
653.982	19.21
654.315	19.2
654.648	19.13
654.981	19.1
655.313	19.08
655.646	19.04
655.979	19.08
656.312	19.01
656.644	19.01
656.977	18.92
657.31	18.85
657.642	18.81
657.975	18.76
658.307	18.83
658.64	18.84
658.972	18.86
659.304	18.86
659.636	18.8
659.969	18.77
660.301	18.77
660.633	18.81
660.965	18.87
661.297	18.84
661.629	18.87
661.961	18.82
662.292	18.74
662.624	18.7
662.956	18.71
663.288	18.75
663.619	18.82
663.951	18.77
664.282	18.7
664.614	18.6
664.945	18.58
665.276	18.54
665.608	18.56
665.939	18.55
666.27	18.49
666.601	18.42
666.933	18.3
667.264	18.21
667.595	18.21
667.926	18.21
668.256	18.19
668.587	18.23
668.918	18.3
669.249	18.21
669.58	18.22
669.91	18.21
670.241	18.24
670.571	18.32
670.902	18.36
671.232	18.28
671.563	18.27
671.893	18.29
672.223	18.2
672.554	18.12
672.884	18.21
673.214	18.18
673.544	18.24
673.874	18.18
674.204	18.15
674.534	18.09
674.864	18.15
675.194	18.13
675.524	18.15
675.853	18.21
676.183	18.3
676.513	18.25
676.842	18.27
677.172	18.31
677.501	18.39
677.831	18.43
