Data from groin3_Reflection__0__15-26-58-177.txt Node

Date: Thu Aug 04 15:26:58 AEST 2022
User: kathy
Spectrometer: JAZA2503
Trigger mode: 0
Integration Time (sec): 2.439700E-1
Scans to average: 10
Electric dark correction enabled: true
Nonlinearity correction enabled: true
Boxcar width: 5
XAxis mode: Wavelengths
Number of Pixels in Spectrum: 2048
>>>>>Begin Spectral Data<<<<<
189.467	-143.86
189.852	-131.72
190.237	-77.69
190.622	-112.64
191.007	-105.26
191.392	17.78
191.777	54.47
192.162	133.32
192.546	373.58
192.931	502.08
193.316	76.32
193.701	203.46
194.086	47.49
194.47	73.81
194.855	1052.23
195.24	149.61
195.624	154.07
196.009	130.32
196.393	234.69
196.778	459.9
197.163	161.25
197.547	102.42
197.931	75.69
198.316	49.96
198.7	43.97
199.085	54.69
199.469	55.98
199.853	51.67
200.237	44.3
200.622	41.33
201.006	47.2
201.39	41.9
201.774	33.41
202.158	39.18
202.542	38.01
202.926	37.22
203.31	29.22
203.694	26.69
204.078	20.83
204.462	29.6
204.846	28.78
205.23	24.24
205.614	22.1
205.998	27.72
206.381	24.65
206.765	30.9
207.149	32
207.532	32.63
207.916	28.42
208.3	32.86
208.683	31.12
209.067	34.09
209.45	30.08
209.834	35.77
210.217	33.35
210.601	25.42
210.984	26.85
211.367	27.34
211.751	23.82
212.134	26.52
212.517	26.01
212.901	23.65
213.284	25.24
213.667	28.47
214.05	25.81
214.433	23.29
214.816	27.14
215.199	28.7
215.582	30.37
215.965	33.25
216.348	33.78
216.731	30.3
217.114	22.75
217.497	14.16
217.88	10.27
218.262	8.05
218.645	6.37
219.028	9.46
219.411	-1.94
219.793	-2.24
220.176	-3.13
220.559	-3.62
220.941	-1.16
221.324	6.87
221.706	12.8
222.089	15.67
222.471	16.02
222.853	15.86
223.236	13.84
223.618	16.02
224	14.83
224.383	14.5
224.765	13.19
225.147	11.41
225.529	8.68
225.912	4.53
226.294	2.53
226.676	1.88
227.058	1.74
227.44	0.9
227.822	1.57
228.204	1.82
228.586	1.88
228.968	1.77
229.349	2.09
229.731	2.24
230.113	2.31
230.495	2.52
230.877	2.65
231.258	2.95
231.64	3.39
232.022	3.07
232.403	3.07
232.785	3.3
233.166	3.36
233.548	3.33
233.929	3.42
234.311	3.91
234.692	4.25
235.073	4.6
235.455	4.45
235.836	4.86
236.217	5.01
236.599	5.23
236.98	5.02
237.361	5.3
237.742	5.08
238.123	4.44
238.504	3.9
238.885	3.65
239.266	3.39
239.647	2.99
240.028	2.45
240.409	2.14
240.79	1.92
241.171	1.76
241.552	1.65
241.933	1.58
242.313	2.05
242.694	2.19
243.075	2.19
243.456	2.1
243.836	2.21
244.217	2.36
244.597	2.44
244.978	2.46
245.358	2.52
245.739	2.45
246.119	2.59
246.5	2.49
246.88	2.51
247.26	2.42
247.641	2.24
248.021	2.16
248.401	2.03
248.781	2.11
249.162	2.18
249.542	2.16
249.922	2.13
250.302	2.24
250.682	2.14
251.062	2.03
251.442	1.96
251.822	2
252.202	2.04
252.582	2.12
252.961	2.12
253.341	2.01
253.721	2.21
254.101	2.47
254.48	2.35
254.86	2.58
255.24	2.83
255.619	3.02
255.999	3.16
256.378	3.36
256.758	3.44
257.137	3.25
257.517	3.09
257.896	2.75
258.276	2.65
258.655	2.22
259.034	1.93
259.414	1.73
259.793	1.61
260.172	1.54
260.551	1.42
260.93	1.27
261.309	1.2
261.688	1.16
262.068	1.18
262.447	1.06
262.825	1.17
263.204	1.03
263.583	1
263.962	0.96
264.341	0.99
264.72	0.84
265.099	0.91
265.477	1
265.856	0.92
266.235	0.95
266.613	0.92
266.992	0.87
267.371	1.03
267.749	1.13
268.128	1.08
268.506	1.13
268.884	1.41
269.263	1.45
269.641	1.35
270.02	1.45
270.398	1.37
270.776	1.36
271.154	1.45
271.533	1.58
271.911	1.56
272.289	1.58
272.667	1.49
273.045	1.41
273.423	1.38
273.801	1.45
274.179	1.43
274.557	1.48
274.935	1.49
275.313	1.47
275.69	1.43
276.068	1.4
276.446	1.46
276.824	1.42
277.201	1.33
277.579	1.35
277.957	1.33
278.334	1.29
278.712	1.29
279.089	1.27
279.467	1.22
279.844	1.2
280.222	1.09
280.599	1.01
280.976	1.05
281.354	1.08
281.731	1.03
282.108	1.05
282.485	1.05
282.863	0.98
283.24	1
283.617	1.03
283.994	1.01
284.371	1.05
284.748	1.13
285.125	1.12
285.502	1.13
285.879	1.14
286.256	1.13
286.633	1.21
287.009	1.32
287.386	1.37
287.763	1.43
288.139	1.45
288.516	1.53
288.893	1.54
289.269	1.63
289.646	1.7
290.022	1.74
290.399	1.77
290.775	1.76
291.152	1.82
291.528	1.88
291.904	1.89
292.281	1.95
292.657	2
293.033	2.05
293.41	2.13
293.786	2.18
294.162	2.27
294.538	2.35
294.914	2.44
295.29	2.48
295.666	2.55
296.042	2.67
296.418	2.78
296.794	2.88
297.17	3.01
297.546	3.08
297.921	3.22
298.297	3.35
298.673	3.46
299.048	3.59
299.424	3.72
299.8	3.84
300.175	3.95
300.551	4.05
300.926	4.17
301.302	4.28
301.677	4.37
302.053	4.49
302.428	4.55
302.803	4.66
303.179	4.8
303.554	4.89
303.929	4.98
304.304	5.1
304.68	5.22
305.055	5.34
305.43	5.43
305.805	5.59
306.18	5.66
306.555	5.77
306.93	5.89
307.305	5.93
307.679	6.05
308.054	6.12
308.429	6.16
308.804	6.19
309.179	6.24
309.553	6.29
309.928	6.31
310.303	6.35
310.677	6.39
311.052	6.41
311.426	6.43
311.801	6.45
312.175	6.52
312.55	6.61
312.924	6.69
313.298	6.73
313.673	6.78
314.047	6.85
314.421	6.9
314.795	6.98
315.17	7.06
315.544	7.14
315.918	7.22
316.292	7.3
316.666	7.37
317.04	7.45
317.414	7.57
317.788	7.7
318.162	7.83
318.535	8.01
318.909	8.16
319.283	8.36
319.657	8.57
320.03	8.79
320.404	8.99
320.778	9.43
321.151	9.94
321.525	10.64
321.898	11.36
322.272	12.07
322.645	12.89
323.019	13.83
323.392	14.87
323.765	15.94
324.139	17.12
324.512	18.4
324.885	19.69
325.258	20.91
325.632	21.89
326.005	22.7
326.378	23.37
326.751	23.85
327.124	24.12
327.497	24.26
327.87	24.42
328.243	24.59
328.616	24.74
328.988	24.81
329.361	24.87
329.734	24.86
330.107	24.83
330.479	24.53
330.852	24.34
331.225	24.14
331.597	23.9
331.97	23.6
332.342	23.38
332.715	23.14
333.087	22.93
333.46	22.71
333.832	22.59
334.204	22.54
334.577	22.49
334.949	22.44
335.321	22.38
335.693	22.2
336.065	21.99
336.438	21.69
336.81	21.45
337.182	21.27
337.554	21.08
337.926	21
338.298	20.86
338.669	20.74
339.041	20.57
339.413	20.46
339.785	20.33
340.157	20.23
340.528	20.2
340.9	20.1
341.272	20
341.643	19.95
342.015	19.98
342.386	20.04
342.758	20.2
343.129	20.4
343.501	20.57
343.872	20.64
344.243	20.62
344.615	20.6
344.986	20.55
345.357	20.5
345.728	20.46
346.099	20.47
346.471	20.45
346.842	20.44
347.213	20.46
347.584	20.52
347.955	20.56
348.326	20.49
348.697	20.4
349.067	20.37
349.438	20.42
349.809	20.44
350.18	20.58
350.55	20.68
350.921	20.78
351.292	20.93
351.662	21.03
352.033	21.1
352.403	21.14
352.774	21.15
353.144	21.2
353.515	21.26
353.885	21.29
354.255	21.3
354.626	21.27
354.996	21.26
355.366	21.26
355.736	21.28
356.107	21.28
356.477	21.3
356.847	21.37
357.217	21.37
357.587	21.39
357.957	21.44
358.327	21.46
358.697	21.52
359.066	21.53
359.436	21.53
359.806	21.56
360.176	21.63
360.546	21.67
360.915	21.68
361.285	21.7
361.654	21.71
362.024	21.72
362.393	21.73
362.763	21.74
363.132	21.78
363.502	21.82
363.871	21.82
364.24	21.8
364.61	21.81
364.979	21.87
365.348	21.92
365.717	21.98
366.087	22.01
366.456	22.06
366.825	22.13
367.194	22.18
367.563	22.21
367.932	22.23
368.301	22.32
368.669	22.38
369.038	22.35
369.407	22.35
369.776	22.38
370.145	22.38
370.513	22.4
370.882	22.38
371.25	22.38
371.619	22.35
371.988	22.39
372.356	22.38
372.724	22.34
373.093	22.39
373.461	22.39
373.83	22.37
374.198	22.4
374.566	22.38
374.934	22.4
375.303	22.43
375.671	22.47
376.039	22.47
376.407	22.53
376.775	22.57
377.143	22.6
377.511	22.66
377.879	22.7
378.247	22.75
378.615	22.79
378.982	22.84
379.35	22.87
379.718	22.92
380.086	22.96
380.453	22.96
380.821	23
381.188	23.03
381.556	23.06
381.923	23.1
382.291	23.1
382.658	23.13
383.026	23.15
383.393	23.17
383.76	23.21
384.128	23.25
384.495	23.29
384.862	23.29
385.229	23.28
385.596	23.26
385.963	23.28
386.33	23.33
386.697	23.34
387.064	23.32
387.431	23.37
387.798	23.34
388.165	23.37
388.532	23.36
388.899	23.37
389.265	23.4
389.632	23.44
389.999	23.43
390.365	23.44
390.732	23.44
391.098	23.48
391.465	23.46
391.831	23.48
392.198	23.45
392.564	23.47
392.93	23.48
393.297	23.51
393.663	23.52
394.029	23.55
394.395	23.59
394.762	23.63
395.128	23.67
395.494	23.72
395.86	23.79
396.226	23.85
396.592	23.9
396.958	23.98
397.323	24.02
397.689	24.09
398.055	24.16
398.421	24.22
398.787	24.28
399.152	24.32
399.518	24.37
399.883	24.42
400.249	24.5
400.615	24.52
400.98	24.54
401.345	24.6
401.711	24.63
402.076	24.63
402.442	24.66
402.807	24.68
403.172	24.7
403.537	24.7
403.902	24.68
404.268	24.66
404.633	24.69
404.998	24.7
405.363	24.68
405.728	24.69
406.093	24.73
406.457	24.72
406.822	24.75
407.187	24.79
407.552	24.87
407.917	24.92
408.281	24.97
408.646	25.03
409.011	25.06
409.375	25.15
409.74	25.2
410.104	25.25
410.469	25.29
410.833	25.32
411.197	25.32
411.562	25.32
411.926	25.33
412.29	25.37
412.655	25.4
413.019	25.45
413.383	25.49
413.747	25.53
414.111	25.57
414.475	25.66
414.839	25.72
415.203	25.83
415.567	25.9
415.931	26
416.295	26.06
416.658	26.13
417.022	26.18
417.386	26.22
417.749	26.24
418.113	26.25
418.477	26.26
418.84	26.3
419.204	26.33
419.567	26.36
419.931	26.4
420.294	26.44
420.657	26.5
421.021	26.55
421.384	26.6
421.747	26.7
422.11	26.79
422.473	26.85
422.836	26.91
423.199	26.96
423.562	27.01
423.925	27.06
424.288	27.09
424.651	27.14
425.014	27.2
425.377	27.22
425.74	27.24
426.102	27.3
426.465	27.39
426.828	27.44
427.19	27.46
427.553	27.52
427.916	27.53
428.278	27.6
428.641	27.59
429.003	27.61
429.365	27.65
429.728	27.65
430.09	27.62
430.452	27.6
430.814	27.61
431.177	27.63
431.539	27.62
431.901	27.66
432.263	27.71
432.625	27.77
432.987	27.8
433.349	27.88
433.711	27.97
434.072	28.09
434.434	28.18
434.796	28.28
435.158	28.42
435.519	28.55
435.881	28.67
436.243	28.71
436.604	28.79
436.966	28.84
437.327	28.88
437.689	28.93
438.05	28.94
438.411	28.98
438.773	29.01
439.134	29.01
439.495	29.05
439.856	29.07
440.218	29.13
440.579	29.17
440.94	29.25
441.301	29.37
441.662	29.44
442.023	29.55
442.384	29.6
442.745	29.67
443.105	29.74
443.466	29.82
443.827	29.88
444.188	29.95
444.548	30.02
444.909	30.09
445.269	30.11
445.63	30.11
445.99	30.17
446.351	30.21
446.711	30.25
447.072	30.28
447.432	30.3
447.792	30.33
448.153	30.37
448.513	30.42
448.873	30.46
449.233	30.48
449.593	30.55
449.953	30.56
450.313	30.62
450.673	30.67
451.033	30.77
451.393	30.82
451.753	30.89
452.113	31.37
452.472	31.41
452.832	31.42
453.192	31.43
453.551	31.43
453.911	31.39
454.271	31.35
454.63	31.33
454.989	31.31
455.349	31.29
455.708	31.29
456.068	31.08
456.427	31.1
456.786	31.14
457.145	31.21
457.505	31.31
457.864	31.44
458.223	31.61
458.582	31.77
458.941	31.93
459.3	32.09
459.659	32.2
460.018	32.32
460.376	32.41
460.735	32.49
461.094	32.56
461.453	32.61
461.811	32.66
462.17	32.69
462.529	32.71
462.887	32.73
463.246	32.75
463.604	32.79
463.963	32.83
464.321	32.78
464.679	32.84
465.038	32.91
465.396	32.96
465.754	33.03
466.112	33.11
466.47	33.21
466.828	33.31
467.186	33.41
467.544	33.5
467.902	33.57
468.26	33.74
468.618	33.79
468.976	33.82
469.334	33.83
469.692	33.83
470.049	33.8
470.407	33.78
470.765	33.77
471.122	33.77
471.48	33.81
471.837	33.87
472.195	33.97
472.552	34.03
472.909	34.08
473.267	34.18
473.624	34.28
473.981	34.38
474.338	34.43
474.696	34.47
475.053	34.53
475.41	34.53
475.767	34.56
476.124	34.57
476.481	34.59
476.838	34.64
477.194	34.66
477.551	34.67
477.908	34.66
478.265	34.66
478.621	34.71
478.978	34.74
479.335	34.8
479.691	34.83
480.048	34.88
480.404	34.91
480.761	34.94
481.117	34.97
481.473	34.99
481.83	35.04
482.186	35.06
482.542	35.07
482.898	35.07
483.255	35.1
483.611	35.12
483.967	35.14
484.323	35.18
484.679	35.18
485.035	35.19
485.39	35.2
485.746	35.22
486.102	35.28
486.458	35.32
486.814	35.36
487.169	35.4
487.525	35.43
487.88	35.46
488.236	35.46
488.591	35.47
488.947	35.47
489.302	35.49
489.658	35.48
490.013	35.45
490.368	35.42
490.723	35.41
491.079	35.37
491.434	35.36
491.789	35.33
492.144	35.33
492.499	35.33
492.854	35.35
493.209	35.36
493.564	35.4
493.919	35.44
494.273	35.49
494.628	35.5
494.983	35.53
495.338	35.53
495.692	35.54
496.047	35.54
496.401	35.51
496.756	35.44
497.11	35.39
497.465	35.3
497.819	35.21
498.173	35.13
498.528	35.11
498.882	35.04
499.236	35.01
499.59	34.99
499.944	34.97
500.298	34.99
500.652	35
501.006	35
501.36	35
501.714	35
502.068	35.01
502.422	35.02
502.776	35.07
503.129	35.14
503.483	35.2
503.837	35.26
504.19	35.32
504.544	35.36
504.897	35.4
505.251	35.41
505.604	35.42
505.958	35.41
506.311	35.37
506.664	35.32
507.017	35.21
507.371	35.12
507.724	34.99
508.077	34.9
508.43	34.84
508.783	34.81
509.136	34.79
509.489	34.79
509.842	34.78
510.195	34.77
510.547	34.7
510.9	34.67
511.253	34.6
511.606	34.57
511.958	34.46
512.311	34.37
512.663	34.26
513.016	34.14
513.368	34.04
513.721	33.94
514.073	33.86
514.425	33.79
514.778	33.73
515.13	33.69
515.482	33.65
515.834	33.65
516.186	33.63
516.538	33.61
516.89	33.65
517.242	33.71
517.594	33.73
517.946	33.74
518.298	33.77
518.65	33.79
519.001	33.77
519.353	33.75
519.705	33.68
520.056	33.61
520.408	33.55
520.759	33.45
521.111	33.33
521.462	33.23
521.814	33.17
522.165	33.13
522.516	33.05
522.868	33.01
523.219	32.92
523.57	32.87
523.921	32.81
524.272	32.75
524.623	32.66
524.974	32.55
525.325	32.43
525.676	32.31
526.027	32.22
526.378	32.13
526.728	32
527.079	31.94
527.43	31.83
527.78	31.76
528.131	31.69
528.481	31.64
528.832	31.6
529.182	31.56
529.533	31.5
529.883	31.43
530.233	31.36
530.584	31.32
530.934	31.22
531.284	31.16
531.634	31.09
531.984	30.99
532.334	30.85
532.684	30.73
533.034	30.7
533.384	30.65
533.734	30.55
534.084	30.45
534.434	30.34
534.783	30.29
535.133	30.18
535.483	30.09
535.832	30.03
536.182	29.98
536.531	29.89
536.881	29.79
537.23	29.69
537.58	29.6
537.929	29.52
538.278	31.16
538.628	31.08
538.977	30.99
539.326	30.9
539.675	30.78
540.024	30.69
540.373	30.62
540.722	30.51
541.071	30.46
541.42	30.43
541.769	30.36
542.117	28.6
542.466	28.52
542.815	28.43
543.163	28.33
543.512	28.23
543.861	28.14
544.209	28.05
544.558	27.97
544.906	27.85
545.254	27.7
545.603	27.61
545.951	27.51
546.299	27.44
546.647	27.39
546.996	27.35
547.344	27.32
547.692	27.25
548.04	27.2
548.388	27.14
548.736	27.08
549.083	27.03
549.431	26.95
549.779	26.87
550.127	26.75
550.475	26.65
550.822	26.53
551.17	26.42
551.517	26.4
551.865	26.31
552.212	26.23
552.56	26.17
552.907	26.11
553.254	26.02
553.602	25.94
553.949	25.86
554.296	25.78
554.643	25.72
554.99	25.65
555.337	25.47
555.684	25.38
556.031	25.25
556.378	25.08
556.725	24.92
557.072	24.82
557.419	24.72
557.765	24.61
558.112	24.51
558.459	24.4
558.805	24.31
559.152	24.23
559.498	24.12
559.845	24.05
560.191	23.99
560.538	23.95
560.884	23.89
561.23	23.77
561.576	23.7
561.923	23.6
562.269	23.51
562.615	23.43
562.961	23.37
563.307	23.29
563.653	23.25
563.999	23.16
564.344	23.09
564.69	22.98
565.036	22.93
565.382	22.83
565.727	22.75
566.073	22.7
566.419	22.61
566.764	22.55
567.11	22.46
567.455	22.34
567.8	22.27
568.146	22.16
568.491	22.11
568.836	22
569.181	21.94
569.527	21.9
569.872	21.8
570.217	21.71
570.562	21.63
570.907	21.6
571.252	21.58
571.597	21.53
571.941	21.49
572.286	21.45
572.631	21.42
572.976	21.42
573.32	21.4
573.665	21.39
574.009	21.38
574.354	21.37
574.698	21.36
575.043	21.34
575.387	21.29
575.731	21.26
576.076	21.23
576.42	21.19
576.764	21.1
577.108	21.07
577.452	20.97
577.796	20.92
578.14	20.82
578.484	20.78
578.828	20.75
579.172	20.68
579.516	20.61
579.86	20.57
580.203	20.51
580.547	20.48
580.891	20.42
581.234	20.37
581.578	20.27
581.921	20.19
582.264	20.11
582.608	20.06
582.951	20.03
583.294	20.02
583.638	19.97
583.981	19.93
584.324	19.9
584.667	19.88
585.01	19.86
585.353	19.83
585.696	19.83
586.039	19.82
586.382	19.77
586.725	19.76
587.067	19.72
587.41	19.71
587.753	19.7
588.095	19.69
588.438	19.64
588.781	19.62
589.123	19.63
589.465	19.64
589.808	19.62
590.15	19.62
590.492	19.59
590.835	19.55
591.177	19.54
591.519	19.51
591.861	19.45
592.203	19.43
592.545	19.41
592.887	19.39
593.229	19.35
593.571	19.32
593.913	19.28
594.254	19.26
594.596	19.23
594.938	19.18
595.279	19.14
595.621	19.1
595.963	19.08
596.304	19.07
596.645	19.03
596.987	18.99
597.328	18.97
597.669	18.93
598.011	18.9
598.352	18.87
598.693	18.83
599.034	18.79
599.375	18.76
599.716	18.75
600.057	18.75
600.398	18.73
600.739	18.69
601.08	18.67
601.42	18.61
601.761	18.61
602.102	18.63
602.442	18.63
602.783	18.6
603.123	18.58
603.464	18.5
603.804	18.47
604.145	18.43
604.485	18.37
604.825	18.36
605.166	18.29
605.506	18.28
605.846	18.27
606.186	18.27
606.526	18.23
606.866	18.23
607.206	18.22
607.546	18.19
607.886	18.11
608.225	18.1
608.565	18.05
608.905	18.01
609.245	17.97
609.584	17.91
609.924	17.82
610.263	17.8
610.603	17.77
610.942	17.74
611.281	17.71
611.621	17.72
611.96	17.72
612.299	17.71
612.638	17.71
612.978	17.69
613.317	17.66
613.656	17.65
613.995	17.61
614.334	17.54
614.672	17.51
615.011	17.48
615.35	17.45
615.689	17.42
616.027	17.41
616.366	17.39
616.705	17.39
617.043	17.37
617.382	17.35
617.72	17.26
618.059	17.2
618.397	17.2
618.735	17.2
619.073	17.17
619.412	17.11
619.75	17.06
620.088	17.03
620.426	17.02
620.764	16.98
621.102	16.93
621.44	16.91
621.778	16.89
622.115	16.88
622.453	16.87
622.791	16.87
623.129	16.83
623.466	16.8
623.804	16.77
624.141	16.76
624.479	16.73
624.816	16.72
625.153	16.72
625.491	16.72
625.828	16.68
626.165	16.64
626.502	16.6
626.84	16.58
627.177	16.55
627.514	16.48
627.851	16.43
628.188	16.33
628.524	16.22
628.861	16.17
629.198	16.08
629.535	16.02
629.871	15.95
630.208	15.92
630.545	15.89
630.881	15.83
631.218	15.77
631.554	15.74
631.89	15.69
632.227	15.7
632.563	15.67
632.899	15.62
633.235	15.59
633.572	15.53
633.908	15.44
634.244	15.39
634.58	15.33
634.916	15.33
635.251	15.35
635.587	15.31
635.923	15.26
636.259	15.25
636.595	15.25
636.93	15.27
637.266	15.29
637.601	15.27
637.937	15.2
638.272	15.13
638.608	15.1
638.943	15.02
639.278	14.95
639.613	14.91
639.949	14.85
640.284	14.76
640.619	14.67
640.954	14.66
641.289	14.62
641.624	14.61
641.959	14.61
642.294	14.55
642.628	14.48
642.963	14.54
643.298	14.46
643.632	14.49
643.967	14.49
644.302	14.46
644.636	14.46
644.971	14.4
645.305	14.39
645.639	14.36
645.974	14.34
646.308	14.34
646.642	14.27
646.976	14.29
647.31	14.15
647.644	14.13
647.978	14.07
648.312	14.03
648.646	14.05
648.98	14.05
649.314	13.98
649.647	13.93
649.981	13.84
650.315	13.76
650.648	13.7
650.982	13.76
651.315	13.71
651.649	13.72
651.982	13.67
652.316	13.62
652.649	13.56
652.982	13.57
653.315	13.55
653.648	13.64
653.982	13.68
654.315	13.68
654.648	13.59
654.981	13.6
655.313	13.6
655.646	13.53
655.979	13.52
656.312	13.48
656.644	13.47
656.977	13.42
657.31	13.25
657.642	13.2
657.975	13.18
658.307	13.14
658.64	13.1
658.972	13.05
659.304	13.07
659.636	13.04
659.969	13.04
660.301	12.92
660.633	12.94
660.965	12.98
661.297	12.95
661.629	12.95
661.961	12.94
662.292	12.94
662.624	12.96
662.956	12.95
663.288	12.99
663.619	12.99
663.951	13.05
664.282	13.05
664.614	13.04
664.945	13.08
665.276	13.01
665.608	13.01
665.939	12.94
666.27	12.86
666.601	12.84
666.933	12.67
667.264	12.62
667.595	12.56
667.926	12.44
668.256	12.38
668.587	12.28
668.918	12.24
669.249	12.19
669.58	12.21
669.91	12.19
670.241	12.13
670.571	12.28
670.902	12.2
671.232	12.23
671.563	12.24
671.893	12.27
672.223	12.27
672.554	12.3
