Data from thigh2_Reflection__0__15-08-18-475.txt Node

Date: Thu Aug 04 15:08:18 AEST 2022
User: kathy
Spectrometer: JAZA2503
Trigger mode: 0
Integration Time (sec): 2.439700E-1
Scans to average: 10
Electric dark correction enabled: true
Nonlinearity correction enabled: true
Boxcar width: 5
XAxis mode: Wavelengths
Number of Pixels in Spectrum: 2048
>>>>>Begin Spectral Data<<<<<
189.467	438.49
189.852	281.97
190.237	188.62
190.622	234.2
191.007	296.18
191.392	193.36
191.777	129.86
192.162	122.1
192.546	204
192.931	-184.67
193.316	372.66
193.701	580.07
194.086	303.7
194.47	206.5
194.855	-6631.81
195.24	-1041.59
195.624	519.72
196.009	318.06
196.393	389.26
196.778	777.85
197.163	194.57
197.547	95.21
197.931	91.72
198.316	65.59
198.7	32.79
199.085	36.83
199.469	35.95
199.853	31.62
200.237	21.72
200.622	21.82
201.006	26.12
201.39	32.98
201.774	34.91
202.158	34.98
202.542	38.51
202.926	40.97
203.31	37.44
203.694	39.28
204.078	38.5
204.462	48.53
204.846	45.88
205.23	40.95
205.614	36.76
205.998	39.71
206.381	38.62
206.765	40.61
207.149	42.33
207.532	43.28
207.916	42.59
208.3	44.39
208.683	42.85
209.067	48.6
209.45	50.15
209.834	52.67
210.217	52.86
210.601	52.3
210.984	53.3
211.367	58.99
211.751	51.16
212.134	48.65
212.517	48.98
212.901	44.96
213.284	40.13
213.667	35.1
214.05	29.91
214.433	23.89
214.816	21.45
215.199	17.5
215.582	11.41
215.965	11.17
216.348	15.53
216.731	5.62
217.114	-3.84
217.497	-7.64
217.88	-5.81
218.262	-3.31
218.645	-0.62
219.028	3.38
219.411	1.43
219.793	6.47
220.176	6.3
220.559	2.03
220.941	5.54
221.324	13.52
221.706	15.35
222.089	14.53
222.471	14.04
222.853	12.56
223.236	12.55
223.618	12.51
224	10.99
224.383	9.41
224.765	9.25
225.147	10.42
225.529	9.76
225.912	8.74
226.294	8.13
226.676	6.29
227.058	4.69
227.44	3.81
227.822	3.68
228.204	4.35
228.586	4.61
228.968	4.8
229.349	4.43
229.731	4.7
230.113	4.47
230.495	4.69
230.877	5.04
231.258	5.29
231.64	5.3
232.022	5.18
232.403	5.02
232.785	5.4
233.166	5.21
233.548	5.03
233.929	4.29
234.311	4.75
234.692	4.98
235.073	4.66
235.455	4.52
235.836	5.11
236.217	5.17
236.599	4.91
236.98	4.37
237.361	4.5
237.742	4.5
238.123	4.4
238.504	4.27
238.885	4.01
239.266	4.51
239.647	4.4
240.028	3.93
240.409	3.94
240.79	4.12
241.171	4.35
241.552	4.03
241.933	3.83
242.313	4.06
242.694	3.98
243.075	3.82
243.456	3.48
243.836	3.68
244.217	3.82
244.597	3.79
244.978	3.7
245.358	3.81
245.739	3.81
246.119	3.92
246.5	3.69
246.88	3.66
247.26	3.7
247.641	3.72
248.021	3.59
248.401	3.47
248.781	3.56
249.162	3.65
249.542	3.47
249.922	3.52
250.302	3.63
250.682	3.72
251.062	3.69
251.442	3.68
251.822	3.73
252.202	3.74
252.582	3.73
252.961	3.74
253.341	3.74
253.721	3.84
254.101	3.89
254.48	3.87
254.86	3.93
255.24	4.19
255.619	4.17
255.999	4.29
256.378	4.22
256.758	4.33
257.137	4.12
257.517	3.83
257.896	3.56
258.276	3.42
258.655	3.04
259.034	2.86
259.414	2.68
259.793	2.62
260.172	2.52
260.551	2.48
260.93	2.38
261.309	2.42
261.688	2.37
262.068	2.48
262.447	2.46
262.825	2.56
263.204	2.53
263.583	2.59
263.962	2.62
264.341	2.62
264.72	2.68
265.099	2.76
265.477	2.69
265.856	2.78
266.235	2.71
266.613	2.63
266.992	2.5
267.371	2.59
267.749	2.59
268.128	2.48
268.506	2.53
268.884	2.58
269.263	2.57
269.641	2.52
270.02	2.54
270.398	2.52
270.776	2.57
271.154	2.71
271.533	2.74
271.911	2.73
272.289	2.82
272.667	2.8
273.045	2.8
273.423	2.77
273.801	2.84
274.179	2.79
274.557	2.84
274.935	2.79
275.313	2.72
275.69	2.71
276.068	2.67
276.446	2.59
276.824	2.48
277.201	2.38
277.579	2.44
277.957	2.35
278.334	2.33
278.712	2.27
279.089	2.32
279.467	2.29
279.844	2.27
280.222	2.27
280.599	2.26
280.976	2.37
281.354	2.39
281.731	2.37
282.108	2.41
282.485	2.41
282.863	2.41
283.24	2.41
283.617	2.45
283.994	2.43
284.371	2.4
284.748	2.45
285.125	2.44
285.502	2.48
285.879	2.46
286.256	2.46
286.633	2.54
287.009	2.61
287.386	2.62
287.763	2.65
288.139	2.67
288.516	2.74
288.893	2.8
289.269	2.85
289.646	2.87
290.022	2.92
290.399	3
290.775	3.03
291.152	3.09
291.528	3.18
291.904	3.19
292.281	3.25
292.657	3.32
293.033	3.36
293.41	3.4
293.786	3.46
294.162	3.53
294.538	3.54
294.914	3.61
295.29	3.63
295.666	3.67
296.042	3.77
296.418	3.83
296.794	3.84
297.17	3.92
297.546	3.97
297.921	4.05
298.297	4.1
298.673	4.17
299.048	4.2
299.424	4.29
299.8	4.36
300.175	4.42
300.551	4.53
300.926	4.62
301.302	4.69
301.677	4.77
302.053	4.82
302.428	4.92
302.803	4.98
303.179	5.09
303.554	5.13
303.929	5.2
304.304	5.29
304.68	5.33
305.055	5.43
305.43	5.47
305.805	5.55
306.18	5.61
306.555	5.64
306.93	5.73
307.305	5.75
307.679	5.77
308.054	5.77
308.429	5.73
308.804	5.74
309.179	5.76
309.553	5.76
309.928	5.74
310.303	5.74
310.677	5.79
311.052	5.77
311.426	5.79
311.801	5.81
312.175	5.81
312.55	5.87
312.924	5.91
313.298	5.92
313.673	5.93
314.047	5.98
314.421	6.02
314.795	6.04
315.17	6.07
315.544	6.07
315.918	6.09
316.292	6.14
316.666	6.17
317.04	6.18
317.414	6.25
317.788	6.33
318.162	6.39
318.535	6.44
318.909	6.51
319.283	6.6
319.657	6.69
320.03	6.82
320.404	6.91
320.778	7.04
321.151	7.1
321.525	7.25
321.898	7.34
322.272	7.37
322.645	7.5
323.019	7.63
323.392	7.8
323.765	8.05
324.139	8.32
324.512	8.65
324.885	8.94
325.258	9.24
325.632	9.41
326.005	9.56
326.378	9.66
326.751	9.72
327.124	9.74
327.497	9.72
327.87	9.7
328.243	9.66
328.616	9.71
328.988	9.68
329.361	9.69
329.734	9.71
330.107	9.65
330.479	9.51
330.852	9.39
331.225	9.35
331.597	9.28
331.97	9.14
332.342	9.03
332.715	8.95
333.087	8.88
333.46	8.75
333.832	8.65
334.204	8.66
334.577	8.65
334.949	8.6
335.321	8.6
335.693	8.53
336.065	8.49
336.438	8.3
336.81	8.19
337.182	8.1
337.554	7.95
337.926	7.87
338.298	7.75
338.669	7.67
339.041	7.53
339.413	7.44
339.785	7.41
340.157	7.34
340.528	7.33
340.9	7.27
341.272	7.26
341.643	7.2
342.015	7.19
342.386	7.17
342.758	7.22
343.129	7.28
343.501	7.3
343.872	7.29
344.243	7.28
344.615	7.28
344.986	7.22
345.357	7.2
345.728	7.17
346.099	7.16
346.471	7.1
346.842	7.05
347.213	7.02
347.584	6.98
347.955	6.96
348.326	6.87
348.697	6.81
349.067	6.77
349.438	6.74
349.809	6.74
350.18	6.75
350.55	6.75
350.921	6.79
351.292	6.81
351.662	6.8
352.033	6.79
352.403	6.76
352.774	6.74
353.144	6.73
353.515	6.72
353.885	6.73
354.255	6.71
354.626	6.68
354.996	6.63
355.366	6.6
355.736	6.57
356.107	6.54
356.477	6.55
356.847	6.56
357.217	6.54
357.587	6.53
357.957	6.54
358.327	6.53
358.697	6.53
359.066	6.54
359.436	6.55
359.806	6.57
360.176	6.58
360.546	6.58
360.915	6.57
361.285	6.56
361.654	6.54
362.024	6.51
362.393	6.52
362.763	6.52
363.132	6.5
363.502	6.49
363.871	6.5
364.24	6.5
364.61	6.51
364.979	6.5
365.348	6.5
365.717	6.53
366.087	6.53
366.456	6.53
366.825	6.53
367.194	6.54
367.563	6.53
367.932	6.52
368.301	6.52
368.669	6.52
369.038	6.5
369.407	6.49
369.776	6.48
370.145	6.46
370.513	6.46
370.882	6.45
371.25	6.47
371.619	6.45
371.988	6.44
372.356	6.44
372.724	6.44
373.093	6.45
373.461	6.45
373.83	6.46
374.198	6.48
374.566	6.48
374.934	6.46
375.303	6.46
375.671	6.46
376.039	6.48
376.407	6.47
376.775	6.47
377.143	6.5
377.511	6.51
377.879	6.51
378.247	6.5
378.615	6.5
378.982	6.52
379.35	6.49
379.718	6.49
380.086	6.48
380.453	6.45
380.821	6.45
381.188	6.41
381.556	6.42
381.923	6.41
382.291	6.42
382.658	6.42
383.026	6.43
383.393	6.44
383.76	6.46
384.128	6.47
384.495	6.5
384.862	6.51
385.229	6.52
385.596	6.52
385.963	6.53
386.33	6.53
386.697	6.53
387.064	6.5
387.431	6.52
387.798	6.5
388.165	6.5
388.532	6.49
388.899	6.48
389.265	6.47
389.632	6.47
389.999	6.47
390.365	6.48
390.732	6.47
391.098	6.48
391.465	6.49
391.831	6.48
392.198	6.47
392.564	6.47
392.93	6.46
393.297	6.47
393.663	6.46
394.029	6.46
394.395	6.46
394.762	6.47
395.128	6.46
395.494	6.47
395.86	6.48
396.226	6.5
396.592	6.52
396.958	6.54
397.323	6.54
397.689	6.56
398.055	6.58
398.421	6.6
398.787	6.6
399.152	6.6
399.518	6.59
399.883	6.59
400.249	6.61
400.615	6.6
400.98	6.6
401.345	6.6
401.711	6.6
402.076	6.59
402.442	6.58
402.807	6.59
403.172	6.62
403.537	6.61
403.902	6.63
404.268	6.6
404.633	6.6
404.998	6.6
405.363	6.58
405.728	6.57
406.093	6.58
406.457	6.58
406.822	6.58
407.187	6.58
407.552	6.61
407.917	6.6
408.281	6.61
408.646	6.62
409.011	6.65
409.375	6.67
409.74	6.66
410.104	6.66
410.469	6.66
410.833	6.65
411.197	6.65
411.562	6.64
411.926	6.64
412.29	6.66
412.655	6.66
413.019	6.65
413.383	6.68
413.747	6.7
414.111	6.7
414.475	6.71
414.839	6.72
415.203	6.72
415.567	6.74
415.931	6.76
416.295	6.77
416.658	6.77
417.022	6.79
417.386	6.79
417.749	6.78
418.113	6.77
418.477	6.78
418.84	6.78
419.204	6.8
419.567	6.8
419.931	6.8
420.294	6.81
420.657	6.83
421.021	6.85
421.384	6.87
421.747	6.9
422.11	6.92
422.473	6.92
422.836	6.94
423.199	6.96
423.562	6.98
423.925	6.98
424.288	6.98
424.651	6.97
425.014	6.97
425.377	6.98
425.74	6.97
426.102	6.98
426.465	7.01
426.828	7.02
427.19	7.01
427.553	7.04
427.916	7.06
428.278	7.07
428.641	7.09
429.003	7.1
429.365	7.08
429.728	7.09
430.09	7.09
430.452	7.09
430.814	7.1
431.177	7.11
431.539	7.09
431.901	7.11
432.263	7.11
432.625	7.12
432.987	7.13
433.349	7.15
433.711	7.16
434.072	7.18
434.434	7.19
434.796	7.19
435.158	7.24
435.519	7.26
435.881	7.27
436.243	7.28
436.604	7.27
436.966	7.29
437.327	7.31
437.689	7.35
438.05	7.34
438.411	7.36
438.773	7.39
439.134	7.38
439.495	7.39
439.856	7.41
440.218	7.42
440.579	7.44
440.94	7.46
441.301	7.48
441.662	7.5
442.023	7.52
442.384	7.55
442.745	7.56
443.105	7.59
443.466	7.63
443.827	7.65
444.188	7.67
444.548	7.7
444.909	7.73
445.269	7.73
445.63	7.71
445.99	7.74
446.351	7.75
446.711	7.78
447.072	7.78
447.432	7.81
447.792	7.81
448.153	7.83
448.513	7.84
448.873	7.84
449.233	7.87
449.593	7.91
449.953	7.93
450.313	7.95
450.673	7.94
451.033	7.96
451.393	7.97
451.753	7.98
452.113	8.33
452.472	8.35
452.832	8.33
453.192	8.32
453.551	8.31
453.911	8.3
454.271	8.26
454.63	8.25
454.989	8.24
455.349	8.23
455.708	8.23
456.068	8.05
456.427	8.06
456.786	8.08
457.145	8.09
457.505	8.11
457.864	8.15
458.223	8.19
458.582	8.24
458.941	8.27
459.3	8.3
459.659	8.32
460.018	8.36
460.376	8.38
460.735	8.41
461.094	8.43
461.453	8.44
461.811	8.45
462.17	8.47
462.529	8.47
462.887	8.49
463.246	8.51
463.604	8.53
463.963	8.55
464.321	8.62
464.679	8.62
465.038	8.65
465.396	8.67
465.754	8.71
466.112	8.72
466.47	8.77
466.828	8.8
467.186	8.82
467.544	8.84
467.902	8.85
468.26	8.8
468.618	8.82
468.976	8.83
469.334	8.85
469.692	8.86
470.049	8.87
470.407	8.87
470.765	8.86
471.122	8.88
471.48	8.9
471.837	8.94
472.195	8.97
472.552	9
472.909	9.03
473.267	9.04
473.624	9.06
473.981	9.08
474.338	9.09
474.696	9.12
475.053	9.14
475.41	9.15
475.767	9.17
476.124	9.18
476.481	9.18
476.838	9.18
477.194	9.18
477.551	9.2
477.908	9.21
478.265	9.23
478.621	9.23
478.978	9.24
479.335	9.27
479.691	9.29
480.048	9.3
480.404	9.33
480.761	9.33
481.117	9.35
481.473	9.36
481.83	9.39
482.186	9.4
482.542	9.4
482.898	9.41
483.255	9.4
483.611	9.38
483.967	9.41
484.323	9.42
484.679	9.45
485.035	9.47
485.39	9.48
485.746	9.49
486.102	9.51
486.458	9.53
486.814	9.53
487.169	9.56
487.525	9.58
487.88	9.58
488.236	9.58
488.591	9.58
488.947	9.59
489.302	9.59
489.658	9.59
490.013	9.58
490.368	9.56
490.723	9.56
491.079	9.55
491.434	9.54
491.789	9.55
492.144	9.55
492.499	9.56
492.854	9.54
493.209	9.55
493.564	9.55
493.919	9.56
494.273	9.58
494.628	9.58
494.983	9.59
495.338	9.59
495.692	9.58
496.047	9.59
496.401	9.58
496.756	9.57
497.11	9.56
497.465	9.55
497.819	9.54
498.173	9.52
498.528	9.52
498.882	9.52
499.236	9.52
499.59	9.52
499.944	9.53
500.298	9.54
500.652	9.55
501.006	9.55
501.36	9.56
501.714	9.56
502.068	9.57
502.422	9.57
502.776	9.58
503.129	9.6
503.483	9.6
503.837	9.61
504.19	9.61
504.544	9.62
504.897	9.62
505.251	9.62
505.604	9.61
505.958	9.62
506.311	9.6
506.664	9.58
507.017	9.55
507.371	9.54
507.724	9.51
508.077	9.49
508.43	9.45
508.783	9.45
509.136	9.44
509.489	9.42
509.842	9.39
510.195	9.39
510.547	9.37
510.9	9.36
511.253	9.33
511.606	9.31
511.958	9.28
512.311	9.26
512.663	9.22
513.016	9.2
513.368	9.18
513.721	9.16
514.073	9.14
514.425	9.14
514.778	9.12
515.13	9.13
515.482	9.13
515.834	9.13
516.186	9.13
516.538	9.13
516.89	9.14
517.242	9.16
517.594	9.17
517.946	9.18
518.298	9.16
518.65	9.17
519.001	9.14
519.353	9.14
519.705	9.14
520.056	9.11
520.408	9.1
520.759	9.06
521.111	9.04
521.462	9.01
521.814	8.98
522.165	8.96
522.516	8.93
522.868	8.93
523.219	8.92
523.57	8.89
523.921	8.89
524.272	8.87
524.623	8.87
524.974	8.85
525.325	8.83
525.676	8.8
526.027	8.8
526.378	8.8
526.728	8.77
527.079	8.76
527.43	8.74
527.78	8.7
528.131	8.68
528.481	8.66
528.832	8.62
529.182	8.61
529.533	8.59
529.883	8.56
530.233	8.53
530.584	8.51
530.934	8.5
531.284	8.46
531.634	8.44
531.984	8.41
532.334	8.37
532.684	8.34
533.034	8.33
533.384	8.31
533.734	8.29
534.084	8.26
534.434	8.23
534.783	8.18
535.133	8.15
535.483	8.13
535.832	8.12
536.182	8.13
536.531	8.08
536.881	8.05
537.23	8.05
537.58	8.02
537.929	7.99
538.278	8.88
538.628	8.87
538.977	8.86
539.326	8.82
539.675	8.77
540.024	8.72
540.373	8.72
540.722	8.7
541.071	8.66
541.42	8.66
541.769	8.66
542.117	7.72
542.466	7.69
542.815	7.65
543.163	7.63
543.512	7.6
543.861	7.58
544.209	7.56
544.558	7.52
544.906	7.49
545.254	7.43
545.603	7.4
545.951	7.38
546.299	7.37
546.647	7.37
546.996	7.35
547.344	7.35
547.692	7.33
548.04	7.3
548.388	7.29
548.736	7.27
549.083	7.26
549.431	7.22
549.779	7.19
550.127	7.15
550.475	7.09
550.822	7.06
551.17	7.03
551.517	7.01
551.865	6.98
552.212	6.94
552.56	6.94
552.907	6.93
553.254	6.9
553.602	6.86
553.949	6.84
554.296	6.81
554.643	6.79
554.99	6.76
555.337	6.72
555.684	6.71
556.031	6.69
556.378	6.64
556.725	6.58
557.072	6.57
557.419	6.56
557.765	6.5
558.112	6.5
558.459	6.49
558.805	6.47
559.152	6.43
559.498	6.41
559.845	6.38
560.191	6.35
560.538	6.32
560.884	6.31
561.23	6.28
561.576	6.24
561.923	6.19
562.269	6.14
562.615	6.12
562.961	6.1
563.307	6.07
563.653	6.07
563.999	6.07
564.344	6.05
564.69	6.02
565.036	6.01
565.382	6
565.727	5.98
566.073	5.98
566.419	5.95
566.764	5.93
567.11	5.91
567.455	5.84
567.8	5.82
568.146	5.81
568.491	5.8
568.836	5.77
569.181	5.75
569.527	5.72
569.872	5.69
570.217	5.65
570.562	5.65
570.907	5.62
571.252	5.6
571.597	5.57
571.941	5.55
572.286	5.51
572.631	5.51
572.976	5.5
573.32	5.5
573.665	5.49
574.009	5.52
574.354	5.53
574.698	5.52
575.043	5.51
575.387	5.5
575.731	5.49
576.076	5.48
576.42	5.48
576.764	5.47
577.108	5.46
577.452	5.45
577.796	5.42
578.14	5.4
578.484	5.39
578.828	5.38
579.172	5.37
579.516	5.37
579.86	5.37
580.203	5.37
580.547	5.38
580.891	5.37
581.234	5.36
581.578	5.34
581.921	5.32
582.264	5.31
582.608	5.3
582.951	5.3
583.294	5.31
583.638	5.3
583.981	5.28
584.324	5.28
584.667	5.28
585.01	5.29
585.353	5.29
585.696	5.29
586.039	5.28
586.382	5.26
586.725	5.25
587.067	5.24
587.41	5.23
587.753	5.21
588.095	5.2
588.438	5.19
588.781	5.18
589.123	5.17
589.465	5.15
589.808	5.13
590.15	5.12
590.492	5.1
590.835	5.09
591.177	5.09
591.519	5.07
591.861	5.07
592.203	5.06
592.545	5.05
592.887	5.05
593.229	5.05
593.571	5.05
593.913	5.04
594.254	5.04
594.596	5.04
594.938	5.04
595.279	5.03
595.621	5.03
595.963	5.02
596.304	5.01
596.645	5.01
596.987	5.01
597.328	5.02
597.669	5.03
598.011	5.03
598.352	5.03
598.693	5.02
599.034	5.02
599.375	5
599.716	5
600.057	5
600.398	5
600.739	5
601.08	5.01
601.42	5.01
601.761	5
602.102	5
602.442	5.01
602.783	5.01
603.123	4.99
603.464	4.96
603.804	4.95
604.145	4.93
604.485	4.93
604.825	4.89
605.166	4.86
605.506	4.88
605.846	4.89
606.186	4.87
606.526	4.86
606.866	4.87
607.206	4.87
607.546	4.84
607.886	4.82
608.225	4.81
608.565	4.8
608.905	4.8
609.245	4.78
609.584	4.75
609.924	4.74
610.263	4.75
610.603	4.76
610.942	4.77
611.281	4.77
611.621	4.77
611.96	4.76
612.299	4.76
612.638	4.77
612.978	4.75
613.317	4.73
613.656	4.74
613.995	4.75
614.334	4.75
614.672	4.73
615.011	4.73
615.35	4.73
615.689	4.72
616.027	4.7
616.366	4.7
616.705	4.71
617.043	4.7
617.382	4.69
617.72	4.69
618.059	4.66
618.397	4.66
618.735	4.66
619.073	4.66
619.412	4.66
619.75	4.67
620.088	4.69
620.426	4.69
620.764	4.69
621.102	4.68
621.44	4.68
621.778	4.67
622.115	4.66
622.453	4.68
622.791	4.71
623.129	4.69
623.466	4.68
623.804	4.67
624.141	4.66
624.479	4.66
624.816	4.66
625.153	4.64
625.491	4.63
625.828	4.63
626.165	4.61
626.502	4.58
626.84	4.57
627.177	4.57
627.514	4.54
627.851	4.48
628.188	4.47
628.524	4.39
628.861	4.38
629.198	4.38
629.535	4.34
629.871	4.36
630.208	4.35
630.545	4.38
630.881	4.31
631.218	4.29
631.554	4.29
631.89	4.28
632.227	4.28
632.563	4.3
632.899	4.29
633.235	4.29
633.572	4.25
633.908	4.26
634.244	4.27
634.58	4.32
634.916	4.32
635.251	4.4
635.587	4.41
635.923	4.43
636.259	4.41
636.595	4.42
636.93	4.46
637.266	4.51
637.601	4.49
637.937	4.45
638.272	4.44
638.608	4.45
638.943	4.43
639.278	4.43
639.613	4.41
639.949	4.45
640.284	4.41
640.619	4.41
640.954	4.41
641.289	4.43
641.624	4.42
641.959	4.48
642.294	4.46
642.628	4.43
642.963	4.44
643.298	4.44
643.632	4.49
643.967	4.47
644.302	4.42
644.636	4.4
644.971	4.36
645.305	4.38
645.639	4.27
645.974	4.27
646.308	4.21
646.642	4.2
646.976	4.23
647.31	4.1
647.644	4.17
647.978	4.18
648.312	4.19
648.646	4.24
648.98	4.28
649.314	4.29
649.647	4.24
649.981	4.23
650.315	4.21
650.648	4.16
650.982	4.22
651.315	4.15
651.649	4.12
651.982	4.08
652.316	4.05
652.649	3.99
652.982	4.03
653.315	4.09
653.648	4.16
653.982	4.22
654.315	4.23
654.648	4.21
654.981	4.23
655.313	4.29
655.646	4.3
655.979	4.25
656.312	4.28
656.644	4.26
656.977	4.2
657.31	4.08
657.642	4.01
657.975	3.96
658.307	3.98
658.64	3.95
658.972	3.9
659.304	3.9
659.636	3.89
659.969	3.82
660.301	3.72
660.633	3.74
660.965	3.76
661.297	3.84
661.629	3.87
661.961	3.84
662.292	3.86
662.624	3.95
662.956	3.91
663.288	4.02
663.619	4.11
663.951	4.22
664.282	4.2
664.614	4.27
664.945	4.21
665.276	4.2
665.608	4.18
665.939	4.16
666.27	4.07
666.601	4.09
666.933	4.01
667.264	3.96
667.595	3.91
667.926	3.95
668.256	3.9
668.587	3.9
668.918	3.88
669.249	3.85
669.58	3.84
669.91	3.82
670.241	3.77
670.571	3.8
670.902	3.73
671.232	3.78
671.563	3.75
671.893	3.73
672.223	3.71
672.554	3.73
672.884	3.8
673.214	3.86
673.544	3.91
673.874	3.95
674.204	3.97
674.534	4.06
674.864	4.03
675.194	4.07
675.524	4.12
675.853	4.15
676.183	4.15
676.513	4.17
676.842	4.07
677.172	4.02
677.501	4.02
677.831	3.99
678.16	3.97
678.489	3.98
678.819	4.01
679.148	4.09
679.477	4.17
679.806	4.15
680.135	4.1
680.464	4.15
680.793	4.19
681.122	4.16
681.451	4.18
681.78	4.08
682.108	4.08
682.437	4.04
682.766	3.92
683.094	3.79
683.423	3.76
683.751	3.79
684.08	3.69
684.408	3.61
684.737	3.66
685.065	3.55
685.393	3.65
685.721	3.64
686.049	3.61
686.377	3.6
686.705	3.64
687.033	3.69
687.361	3.68
687.689	3.75
688.017	3.81
688.345	3.76
688.673	3.77
689.0	3.8
689.328	3.83
689.655	3.93
689.983	3.96
690.31	3.97
690.638	4.02
690.965	4.02
691.292	4.07
691.62	4.13
691.947	4.15
692.274	4.15
692.601	4.08
692.928	4.08
693.255	3.98
693.582	3.96
693.909	4.02
694.236	3.95
694.562	3.94
694.889	3.95
695.216	3.89
695.542	3.94
695.869	4
696.196	4.03
