Data from thigh1_Reflection__0__15-27-31-423.txt Node

Date: Thu Aug 04 15:27:31 AEST 2022
User: kathy
Spectrometer: JAZA2503
Trigger mode: 0
Integration Time (sec): 2.439700E-1
Scans to average: 10
Electric dark correction enabled: true
Nonlinearity correction enabled: true
Boxcar width: 5
XAxis mode: Wavelengths
Number of Pixels in Spectrum: 2048
>>>>>Begin Spectral Data<<<<<
189.467	96.66
189.852	98.21
190.237	74
190.622	49.44
191.007	-60.24
191.392	1.42
191.777	14.31
192.162	-2.23
192.546	53.69
192.931	-94.04
193.316	209.35
193.701	172.68
194.086	145.64
194.47	78.36
194.855	-1828.65
195.24	49.01
195.624	132.9
196.009	126.84
196.393	97.76
196.778	386.5
197.163	159.09
197.547	88.63
197.931	86.72
198.316	51.91
198.7	56.92
199.085	49.55
199.469	48.63
199.853	46.96
200.237	45.3
200.622	48.45
201.006	45.49
201.39	40.64
201.774	35.88
202.158	36.45
202.542	43.19
202.926	36.81
203.31	29.32
203.694	22.78
204.078	19.58
204.462	14.96
204.846	16.89
205.23	17.28
205.614	15.2
205.998	25.19
206.381	28.6
206.765	29.5
207.149	27.72
207.532	29.84
207.916	25.79
208.3	27.3
208.683	28.17
209.067	29.19
209.45	23.97
209.834	29.65
210.217	27.78
210.601	21.17
210.984	24.17
211.367	36.09
211.751	38.65
212.134	45.22
212.517	45.34
212.901	48.55
213.284	47.28
213.667	51.03
214.05	46.33
214.433	42.16
214.816	41.81
215.199	36.57
215.582	27.67
215.965	19.79
216.348	19.82
216.731	9.54
217.114	2.99
217.497	-1.95
217.88	-8.49
218.262	-16.56
218.645	-15.04
219.028	-11.25
219.411	-12.98
219.793	-8.24
220.176	-4.3
220.559	-3.74
220.941	0.03
221.324	5.04
221.706	12.65
222.089	16.59
222.471	20.61
222.853	20.52
223.236	20.01
223.618	19.32
224	17.52
224.383	15.1
224.765	14.66
225.147	14.25
225.529	11.35
225.912	7.48
226.294	5.51
226.676	3.69
227.058	3.16
227.44	2.76
227.822	3.06
228.204	3.45
228.586	3.67
228.968	3.22
229.349	3.14
229.731	3.62
230.113	3.25
230.495	3.62
230.877	3.55
231.258	3.99
231.64	4.27
232.022	4.02
232.403	3.94
232.785	4.3
233.166	4.73
233.548	4.51
233.929	3.9
234.311	4.34
234.692	3.99
235.073	3.97
235.455	3.67
235.836	4.06
236.217	4.07
236.599	3.87
236.98	3.46
237.361	2.71
237.742	2.91
238.123	2.6
238.504	2.61
238.885	2.49
239.266	2.37
239.647	2.01
240.028	1.47
240.409	1.37
240.79	1.63
241.171	1.8
241.552	2.16
241.933	2.15
242.313	2.62
242.694	2.7
243.075	2.85
243.456	2.86
243.836	2.99
244.217	3.19
244.597	3.25
244.978	3.06
245.358	3.15
245.739	2.98
246.119	2.9
246.5	2.61
246.88	2.35
247.26	2.19
247.641	2.1
248.021	1.98
248.401	1.82
248.781	1.87
249.162	2.02
249.542	1.88
249.922	1.83
250.302	1.94
250.682	1.97
251.062	2.03
251.442	1.91
251.822	1.98
252.202	2.11
252.582	2.26
252.961	2.46
253.341	2.49
253.721	2.69
254.101	2.83
254.48	2.73
254.86	2.66
255.24	2.87
255.619	3.06
255.999	3.12
256.378	3.02
256.758	2.97
257.137	2.56
257.517	2.24
257.896	2.02
258.276	1.76
258.655	1.41
259.034	1.26
259.414	1.08
259.793	1.07
260.172	0.99
260.551	0.99
260.93	0.85
261.309	0.86
261.688	0.84
262.068	0.82
262.447	0.83
262.825	0.91
263.204	0.91
263.583	0.89
263.962	0.82
264.341	0.88
264.72	0.87
265.099	0.99
265.477	1.05
265.856	1.06
266.235	1.07
266.613	1.1
266.992	1.09
267.371	1.24
267.749	1.36
268.128	1.28
268.506	1.29
268.884	1.44
269.263	1.41
269.641	1.3
270.02	1.33
270.398	1.29
270.776	1.34
271.154	1.4
271.533	1.42
271.911	1.33
272.289	1.44
272.667	1.46
273.045	1.36
273.423	1.39
273.801	1.51
274.179	1.53
274.557	1.61
274.935	1.61
275.313	1.63
275.69	1.62
276.068	1.63
276.446	1.56
276.824	1.41
277.201	1.4
277.579	1.44
277.957	1.34
278.334	1.29
278.712	1.23
279.089	1.17
279.467	1.1
279.844	1.1
280.222	1.09
280.599	1.07
280.976	1.14
281.354	1.09
281.731	0.99
282.108	1.03
282.485	1.05
282.863	1.1
283.24	1.1
283.617	1.11
283.994	1.11
284.371	1.11
284.748	1.16
285.125	1.16
285.502	1.19
285.879	1.26
286.256	1.21
286.633	1.28
287.009	1.32
287.386	1.38
287.763	1.48
288.139	1.48
288.516	1.56
288.893	1.61
289.269	1.68
289.646	1.75
290.022	1.8
290.399	1.9
290.775	1.92
291.152	1.95
291.528	1.97
291.904	1.99
292.281	2.07
292.657	2.14
293.033	2.21
293.41	2.3
293.786	2.4
294.162	2.49
294.538	2.58
294.914	2.69
295.29	2.8
295.666	2.92
296.042	3.04
296.418	3.17
296.794	3.27
297.17	3.39
297.546	3.51
297.921	3.61
298.297	3.76
298.673	3.88
299.048	4
299.424	4.13
299.8	4.27
300.175	4.38
300.551	4.49
300.926	4.58
301.302	4.69
301.677	4.83
302.053	4.95
302.428	5.06
302.803	5.18
303.179	5.36
303.554	5.45
303.929	5.55
304.304	5.69
304.68	5.8
305.055	5.97
305.43	6.04
305.805	6.11
306.18	6.18
306.555	6.24
306.93	6.31
307.305	6.31
307.679	6.37
308.054	6.38
308.429	6.39
308.804	6.4
309.179	6.44
309.553	6.5
309.928	6.51
310.303	6.56
310.677	6.62
311.052	6.62
311.426	6.65
311.801	6.72
312.175	6.78
312.55	6.88
312.924	6.96
313.298	6.97
313.673	7.01
314.047	7.05
314.421	7.11
314.795	7.15
315.17	7.23
315.544	7.32
315.918	7.4
316.292	7.5
316.666	7.59
317.04	7.69
317.414	7.83
317.788	8.01
318.162	8.23
318.535	8.41
318.909	8.58
319.283	8.8
319.657	8.97
320.03	9.2
320.404	9.41
320.778	9.91
321.151	10.5
321.525	11.15
321.898	11.87
322.272	12.6
322.645	13.45
323.019	14.36
323.392	15.3
323.765	16.38
324.139	17.45
324.512	18.62
324.885	19.7
325.258	20.73
325.632	21.64
326.005	22.38
326.378	22.91
326.751	23.32
327.124	23.53
327.497	23.61
327.87	23.68
328.243	23.73
328.616	23.78
328.988	23.76
329.361	23.77
329.734	23.74
330.107	23.55
330.479	23.35
330.852	23.07
331.225	22.85
331.597	22.58
331.97	22.3
332.342	22.06
332.715	21.83
333.087	21.64
333.46	21.4
333.832	21.24
334.204	21.16
334.577	21.03
334.949	20.85
335.321	20.77
335.693	20.58
336.065	20.34
336.438	20.11
336.81	19.89
337.182	19.67
337.554	19.4
337.926	19.27
338.298	19.04
338.669	18.83
339.041	18.64
339.413	18.53
339.785	18.41
340.157	18.29
340.528	18.22
340.9	18.09
341.272	17.99
341.643	17.94
342.015	17.91
342.386	17.94
342.758	18.05
343.129	18.21
343.501	18.26
343.872	18.23
344.243	18.21
344.615	18.1
344.986	17.89
345.357	17.8
345.728	17.71
346.099	17.65
346.471	17.53
346.842	17.55
347.213	17.53
347.584	17.55
347.955	17.53
348.326	17.51
348.697	17.42
349.067	17.35
349.438	17.36
349.809	17.37
350.18	17.43
350.55	17.47
350.921	17.51
351.292	17.6
351.662	17.65
352.033	17.71
352.403	17.71
352.774	17.69
353.144	17.71
353.515	17.73
353.885	17.73
354.255	17.67
354.626	17.62
354.996	17.59
355.366	17.55
355.736	17.52
356.107	17.5
356.477	17.52
356.847	17.57
357.217	17.54
357.587	17.52
357.957	17.54
358.327	17.55
358.697	17.56
359.066	17.6
359.436	17.61
359.806	17.63
360.176	17.67
360.546	17.66
360.915	17.63
361.285	17.64
361.654	17.63
362.024	17.65
362.393	17.63
362.763	17.65
363.132	17.64
363.502	17.63
363.871	17.65
364.24	17.65
364.61	17.68
364.979	17.73
365.348	17.77
365.717	17.83
366.087	17.83
366.456	17.89
366.825	17.92
367.194	17.96
367.563	18.02
367.932	18.03
368.301	18.06
368.669	18.11
369.038	18.12
369.407	18.14
369.776	18.14
370.145	18.17
370.513	18.23
370.882	18.3
371.25	18.34
371.619	18.38
371.988	18.41
372.356	18.48
372.724	18.51
373.093	18.54
373.461	18.58
373.83	18.65
374.198	18.7
374.566	18.73
374.934	18.71
375.303	18.77
375.671	18.81
376.039	18.87
376.407	18.92
376.775	18.95
377.143	19.03
377.511	19.09
377.879	19.17
378.247	19.23
378.615	19.32
378.982	19.44
379.35	19.49
379.718	19.57
380.086	19.63
380.453	19.73
380.821	19.8
381.188	19.84
381.556	19.93
381.923	19.98
382.291	20.06
382.658	20.1
383.026	20.15
383.393	20.22
383.76	20.28
384.128	20.34
384.495	20.4
384.862	20.45
385.229	20.51
385.596	20.53
385.963	20.59
386.33	20.62
386.697	20.64
387.064	20.65
387.431	20.66
387.798	20.69
388.165	20.73
388.532	20.74
388.899	20.79
389.265	20.8
389.632	20.82
389.999	20.81
390.365	20.83
390.732	20.89
391.098	20.91
391.465	20.94
391.831	20.94
392.198	20.95
392.564	20.98
392.93	20.98
393.297	21.01
393.663	21.02
394.029	21.08
394.395	21.12
394.762	21.15
395.128	21.18
395.494	21.23
395.86	21.31
396.226	21.36
396.592	21.39
396.958	21.46
397.323	21.52
397.689	21.58
398.055	21.64
398.421	21.71
398.787	21.77
399.152	21.82
399.518	21.89
399.883	21.92
400.249	21.97
400.615	22.03
400.98	22.05
401.345	22.07
401.711	22.1
402.076	22.07
402.442	22.07
402.807	22.06
403.172	22.06
403.537	22.02
403.902	22.04
404.268	22.05
404.633	22.05
404.998	22.06
405.363	22.08
405.728	22.07
406.093	22.12
406.457	22.14
406.822	22.19
407.187	22.24
407.552	22.3
407.917	22.34
408.281	22.36
408.646	22.38
409.011	22.4
409.375	22.46
409.74	22.51
410.104	22.53
410.469	22.57
410.833	22.59
411.197	22.59
411.562	22.61
411.926	22.62
412.29	22.64
412.655	22.67
413.019	22.69
413.383	22.7
413.747	22.73
414.111	22.78
414.475	22.83
414.839	22.89
415.203	22.93
415.567	22.97
415.931	23.03
416.295	23.11
416.658	23.14
417.022	23.16
417.386	23.19
417.749	23.19
418.113	23.2
418.477	23.19
418.84	23.18
419.204	23.2
419.567	23.22
419.931	23.24
420.294	23.25
420.657	23.3
421.021	23.34
421.384	23.36
421.747	23.43
422.11	23.47
422.473	23.5
422.836	23.54
423.199	23.57
423.562	23.65
423.925	23.65
424.288	23.68
424.651	23.7
425.014	23.72
425.377	23.78
425.74	23.78
426.102	23.82
426.465	23.9
426.828	23.98
427.19	24.03
427.553	24.04
427.916	24.07
428.278	24.1
428.641	24.13
429.003	24.19
429.365	24.18
429.728	24.2
430.09	24.21
430.452	24.18
430.814	24.13
431.177	24.12
431.539	24.11
431.901	24.14
432.263	24.18
432.625	24.22
432.987	24.24
433.349	24.31
433.711	24.37
434.072	24.49
434.434	24.6
434.796	24.72
435.158	24.82
435.519	24.93
435.881	25
436.243	25.04
436.604	25.1
436.966	25.15
437.327	25.21
437.689	25.28
438.05	25.27
438.411	25.3
438.773	25.33
439.134	25.37
439.495	25.43
439.856	25.51
440.218	25.6
440.579	25.64
440.94	25.71
441.301	25.79
441.662	25.88
442.023	25.95
442.384	25.99
442.745	26.04
443.105	26.1
443.466	26.15
443.827	26.14
444.188	26.17
444.548	26.22
444.909	26.27
445.269	26.29
445.63	26.3
445.99	26.36
446.351	26.42
446.711	26.47
447.072	26.55
447.432	26.58
447.792	26.67
448.153	26.74
448.513	26.79
448.873	26.83
449.233	26.86
449.593	26.9
449.953	26.9
450.313	26.92
450.673	26.95
451.033	26.97
451.393	27.01
451.753	27.03
452.113	27.51
452.472	27.54
452.832	27.58
453.192	27.62
453.551	27.65
453.911	27.65
454.271	27.64
454.63	27.62
454.989	27.62
455.349	27.6
455.708	27.63
456.068	27.4
456.427	27.43
456.786	27.47
457.145	27.53
457.505	27.6
457.864	27.7
458.223	27.85
458.582	28
458.941	28.15
459.3	28.29
459.659	28.39
460.018	28.5
460.376	28.6
460.735	28.68
461.094	28.75
461.453	28.82
461.811	28.87
462.17	28.91
462.529	28.93
462.887	28.95
463.246	28.97
463.604	29.01
463.963	29.06
464.321	28.99
464.679	29.01
465.038	29.04
465.396	29.08
465.754	29.15
466.112	29.22
466.47	29.32
466.828	29.43
467.186	29.53
467.544	29.62
467.902	29.69
468.26	29.89
468.618	29.98
468.976	30.04
469.334	30.1
469.692	30.1
470.049	30.11
470.407	30.11
470.765	30.09
471.122	30.13
471.48	30.18
471.837	30.26
472.195	30.36
472.552	30.45
472.909	30.55
473.267	30.64
473.624	30.73
473.981	30.82
474.338	30.88
474.696	30.92
475.053	30.98
475.41	31.02
475.767	31.06
476.124	31.08
476.481	31.1
476.838	31.12
477.194	31.17
477.551	31.22
477.908	31.26
478.265	31.28
478.621	31.39
478.978	31.43
479.335	31.5
479.691	31.58
480.048	31.61
480.404	31.67
480.761	31.75
481.117	31.78
481.473	31.8
481.83	31.84
482.186	31.89
482.542	31.92
482.898	31.96
483.255	31.99
483.611	32.01
483.967	32.06
484.323	32.1
484.679	32.12
485.035	32.18
485.39	32.22
485.746	32.25
486.102	32.31
486.458	32.35
486.814	32.39
487.169	32.43
487.525	32.48
487.88	32.55
488.236	32.57
488.591	32.59
488.947	32.57
489.302	32.59
489.658	32.6
490.013	32.57
490.368	32.53
490.723	32.51
491.079	32.49
491.434	32.47
491.789	32.46
492.144	32.48
492.499	32.51
492.854	32.56
493.209	32.59
493.564	32.64
493.919	32.69
494.273	32.77
494.628	32.81
494.983	32.85
495.338	32.87
495.692	32.86
496.047	32.84
496.401	32.78
496.756	32.73
497.11	32.7
497.465	32.65
497.819	32.59
498.173	32.56
498.528	32.55
498.882	32.5
499.236	32.5
499.59	32.48
499.944	32.48
500.298	32.49
500.652	32.49
501.006	32.49
501.36	32.47
501.714	32.46
502.068	32.46
502.422	32.46
502.776	32.52
503.129	32.56
503.483	32.61
503.837	32.68
504.19	32.74
504.544	32.78
504.897	32.81
505.251	32.82
505.604	32.84
505.958	32.82
506.311	32.77
506.664	32.71
507.017	32.6
507.371	32.51
507.724	32.4
508.077	32.32
508.43	32.26
508.783	32.22
509.136	32.23
509.489	32.19
509.842	32.18
510.195	32.16
510.547	32.11
510.9	32.09
511.253	32.03
511.606	31.96
511.958	31.85
512.311	31.75
512.663	31.62
513.016	31.49
513.368	31.38
513.721	31.31
514.073	31.23
514.425	31.14
514.778	31.07
515.13	31.01
515.482	30.99
515.834	30.97
516.186	30.95
516.538	30.94
516.89	30.98
517.242	31.01
517.594	30.98
517.946	30.99
518.298	31.03
518.65	31.02
519.001	31.01
519.353	30.96
519.705	30.92
520.056	30.86
520.408	30.78
520.759	30.66
521.111	30.56
521.462	30.48
521.814	30.41
522.165	30.34
522.516	30.25
522.868	30.21
523.219	30.14
523.57	30.09
523.921	30
524.272	29.93
524.623	29.87
524.974	29.77
525.325	29.68
525.676	29.56
526.027	29.48
526.378	29.4
526.728	29.3
527.079	29.22
527.43	29.15
527.78	29.1
528.131	29.01
528.481	28.93
528.832	28.88
529.182	28.84
529.533	28.76
529.883	28.68
530.233	28.65
530.584	28.59
530.934	28.54
531.284	28.41
531.634	28.31
531.984	28.25
532.334	28.16
532.684	28.04
533.034	27.93
533.384	27.88
533.734	27.8
534.084	27.66
534.434	27.56
534.783	27.41
535.133	27.35
535.483	27.26
535.832	27.16
536.182	27.07
536.531	27
536.881	26.92
537.23	26.82
537.58	26.72
537.929	26.64
538.278	28.23
538.628	28.14
538.977	28.07
539.326	27.97
539.675	27.92
540.024	27.83
540.373	27.76
540.722	27.69
541.071	27.62
541.42	27.58
541.769	27.52
542.117	25.79
542.466	25.74
542.815	25.63
543.163	25.55
543.512	25.43
543.861	25.32
544.209	25.23
544.558	25.13
544.906	25.05
545.254	24.9
545.603	24.82
545.951	24.72
546.299	24.67
546.647	24.65
546.996	24.62
547.344	24.55
547.692	24.51
548.04	24.47
548.388	24.41
548.736	24.34
549.083	24.31
549.431	24.25
549.779	24.16
550.127	24.02
550.475	23.9
550.822	23.76
551.17	23.71
551.517	23.65
551.865	23.56
552.212	23.47
552.56	23.4
552.907	23.31
553.254	23.22
553.602	23.15
553.949	23.09
554.296	22.99
554.643	22.92
554.99	22.8
555.337	22.68
555.684	22.56
556.031	22.45
556.378	22.33
556.725	22.2
557.072	22.1
557.419	21.99
557.765	21.88
558.112	21.81
558.459	21.72
558.805	21.67
559.152	21.58
559.498	21.5
559.845	21.43
560.191	21.36
560.538	21.31
560.884	21.23
561.23	21.16
561.576	21.07
561.923	20.95
562.269	20.86
562.615	20.75
562.961	20.65
563.307	20.58
563.653	20.51
563.999	20.42
564.344	20.34
564.69	20.24
565.036	20.19
565.382	20.1
565.727	20.02
566.073	19.95
566.419	19.87
566.764	19.81
567.11	19.72
567.455	19.65
567.8	19.57
568.146	19.48
568.491	19.4
568.836	19.29
569.181	19.2
569.527	19.13
569.872	19.04
570.217	18.95
570.562	18.87
570.907	18.82
571.252	18.76
571.597	18.68
571.941	18.64
572.286	18.58
572.631	18.54
572.976	18.53
573.32	18.51
573.665	18.51
574.009	18.51
574.354	18.51
574.698	18.49
575.043	18.47
575.387	18.42
575.731	18.38
576.076	18.34
576.42	18.29
576.764	18.25
577.108	18.17
577.452	18.14
577.796	18.03
578.14	18.02
578.484	17.95
578.828	17.91
579.172	17.85
579.516	17.82
579.86	17.77
580.203	17.72
580.547	17.71
580.891	17.65
581.234	17.61
581.578	17.54
581.921	17.49
582.264	17.49
582.608	17.39
582.951	17.37
583.294	17.33
583.638	17.33
583.981	17.33
584.324	17.28
584.667	17.28
585.01	17.26
585.353	17.22
585.696	17.2
586.039	17.19
586.382	17.17
586.725	17.16
587.067	17.15
587.41	17.13
587.753	17.07
588.095	17.07
588.438	17.06
588.781	17.04
589.123	17.03
589.465	17.02
589.808	17.02
590.15	17.01
590.492	16.99
590.835	16.97
591.177	16.94
591.519	16.87
591.861	16.86
592.203	16.83
592.545	16.81
592.887	16.79
593.229	16.76
593.571	16.72
593.913	16.71
594.254	16.64
594.596	16.65
594.938	16.54
595.279	16.52
595.621	16.45
595.963	16.41
596.304	16.36
596.645	16.32
596.987	16.28
597.328	16.25
597.669	16.22
598.011	16.2
598.352	16.17
598.693	16.15
599.034	16.12
599.375	16.09
599.716	16.08
600.057	16.1
600.398	16.1
600.739	16.08
601.08	16.07
601.42	16.07
601.761	16.07
602.102	16.08
602.442	16.09
602.783	16.08
603.123	16.06
603.464	16.04
603.804	16.01
604.145	15.97
604.485	15.94
604.825	15.93
605.166	15.86
605.506	15.84
605.846	15.81
606.186	15.79
606.526	15.72
606.866	15.7
607.206	15.7
607.546	15.69
607.886	15.55
608.225	15.49
608.565	15.48
608.905	15.39
609.245	15.35
609.584	15.31
609.924	15.28
610.263	15.27
610.603	15.26
610.942	15.24
611.281	15.21
611.621	15.2
611.96	15.2
612.299	15.2
612.638	15.2
612.978	15.15
613.317	15.14
613.656	15.13
613.995	15.13
614.334	15.13
614.672	15.09
615.011	15.09
615.35	15.08
615.689	15.06
616.027	15.02
616.366	15.04
616.705	15.04
617.043	15.01
617.382	14.94
617.72	14.84
618.059	14.81
618.397	14.77
618.735	14.76
619.073	14.71
619.412	14.69
619.75	14.63
620.088	14.59
620.426	14.56
620.764	14.53
621.102	14.48
621.44	14.43
621.778	14.39
622.115	14.32
622.453	14.3
622.791	14.27
623.129	14.21
623.466	14.17
623.804	14.12
624.141	14.08
624.479	14.06
624.816	14.03
625.153	14.02
625.491	14.01
625.828	13.98
626.165	13.95
626.502	13.94
626.84	13.9
627.177	13.9
627.514	13.87
627.851	13.85
628.188	13.79
628.524	13.7
628.861	13.7
629.198	13.64
629.535	13.6
629.871	13.54
630.208	13.53
630.545	13.52
630.881	13.44
631.218	13.4
631.554	13.36
631.89	13.39
632.227	13.39
632.563	13.35
632.899	13.3
633.235	13.25
633.572	13.23
633.908	13.19
634.244	13.13
634.58	13.12
634.916	13.07
635.251	13.09
635.587	13.03
635.923	12.97
636.259	12.94
636.595	12.94
636.93	12.96
637.266	12.96
637.601	12.85
637.937	12.78
638.272	12.73
638.608	12.71
638.943	12.62
639.278	12.55
639.613	12.52
639.949	12.48
640.284	12.44
640.619	12.39
640.954	12.34
641.289	12.35
641.624	12.31
641.959	12.33
642.294	12.26
642.628	12.23
642.963	12.24
643.298	12.13
643.632	12.2
643.967	12.11
644.302	12.04
644.636	12.05
644.971	11.97
645.305	11.98
645.639	11.97
645.974	11.97
646.308	11.96
646.642	11.93
646.976	11.97
647.31	11.88
647.644	11.96
647.978	11.99
648.312	11.93
648.646	12.02
648.98	12
649.314	11.85
649.647	11.87
649.981	11.85
650.315	11.81
650.648	11.8
650.982	11.78
651.315	11.72
651.649	11.68
651.982	11.65
652.316	11.62
652.649	11.61
652.982	11.69
653.315	11.62
653.648	11.61
653.982	11.62
654.315	11.6
654.648	11.58
654.981	11.56
655.313	11.54
655.646	11.53
655.979	11.41
656.312	11.39
656.644	11.38
656.977	11.31
657.31	11.19
657.642	11.07
657.975	11.06
658.307	11.02
658.64	10.94
658.972	10.89
659.304	10.86
659.636	10.87
659.969	10.8
660.301	10.69
660.633	10.74
660.965	10.77
661.297	10.8
661.629	10.79
661.961	10.77
662.292	10.79
662.624	10.76
662.956	10.72
663.288	10.78
663.619	10.81
663.951	10.85
664.282	10.81
664.614	10.81
664.945	10.82
665.276	10.77
665.608	10.79
665.939	10.76
666.27	10.76
666.601	10.8
666.933	10.75
667.264	10.77
667.595	10.68
667.926	10.65
668.256	10.59
668.587	10.5
668.918	10.53
669.249	10.45
669.58	10.47
669.91	10.41
670.241	10.34
670.571	10.37
670.902	10.3
671.232	10.35
671.563	10.32
671.893	10.34
672.223	10.34
