Data from groin3_Reflection__0__11-56-34-970.txt Node

Date: Thu Aug 04 11:56:34 AEST 2022
User: kathy
Spectrometer: JAZA2503
Trigger mode: 0
Integration Time (sec): 2.883200E-1
Scans to average: 10
Electric dark correction enabled: true
Nonlinearity correction enabled: true
Boxcar width: 5
XAxis mode: Wavelengths
Number of Pixels in Spectrum: 2048
>>>>>Begin Spectral Data<<<<<
189.467	-138
189.852	-310.09
190.237	-8582.42
190.622	-546.74
191.007	-225.94
191.392	-325.95
191.777	-609.44
192.162	36.97
192.546	-118.2
192.931	-194.73
193.316	-204.85
193.701	-262.42
194.086	198.72
194.47	195.38
194.855	428.82
195.24	11728.46
195.624	414.55
196.009	-284.31
196.393	-26.15
196.778	-475.41
197.163	76.4
197.547	51.68
197.931	45.46
198.316	52.28
198.7	41.59
199.085	38.98
199.469	41.26
199.853	37.54
200.237	43.48
200.622	41.88
201.006	36.29
201.39	33.41
201.774	28.71
202.158	29.25
202.542	24
202.926	20.09
203.31	11.23
203.694	6.99
204.078	-0.51
204.462	-9.41
204.846	-6.69
205.23	-6.06
205.614	-4.74
205.998	-5.04
206.381	-8.74
206.765	-7.6
207.149	-5.02
207.532	0.01
207.916	1.88
208.3	12.57
208.683	15.83
209.067	12.45
209.45	17.78
209.834	17.65
210.217	20.96
210.601	25.15
210.984	25.14
211.367	29.34
211.751	30.54
212.134	30.94
212.517	30.85
212.901	34.33
213.284	36.48
213.667	34.92
214.05	34.97
214.433	33.63
214.816	31.47
215.199	35.5
215.582	31.35
215.965	30.52
216.348	28.12
216.731	26.37
217.114	18.71
217.497	14.37
217.88	17.21
218.262	14.84
218.645	15.75
219.028	14.73
219.411	10.72
219.793	9.06
220.176	9.08
220.559	6.14
220.941	5.78
221.324	7.85
221.706	7.41
222.089	5.01
222.471	7.13
222.853	5.16
223.236	6.96
223.618	7.01
224	9
224.383	7.6
224.765	9.33
225.147	10.55
225.529	10.59
225.912	10.61
226.294	10.13
226.676	8.79
227.058	7.8
227.44	6.05
227.822	5.23
228.204	4.87
228.586	4.64
228.968	4.09
229.349	3.24
229.731	3.46
230.113	2.86
230.495	3.08
230.877	3.09
231.258	3.2
231.64	3.34
232.022	3.11
232.403	3.02
232.785	3.59
233.166	3.8
233.548	4.06
233.929	3.76
234.311	4.33
234.692	3.75
235.073	3.88
235.455	4.1
235.836	4.04
236.217	4.26
236.599	4
236.98	3.26
237.361	2.82
237.742	2.6
238.123	2.57
238.504	2.5
238.885	2.55
239.266	2.7
239.647	2.55
240.028	2.67
240.409	2.42
240.79	2.41
241.171	2.53
241.552	2.68
241.933	2.63
242.313	2.57
242.694	2.39
243.075	2.63
243.456	2.49
243.836	2.57
244.217	2.52
244.597	2.63
244.978	2.65
245.358	2.68
245.739	2.62
246.119	2.52
246.5	2.44
246.88	2.48
247.26	2.28
247.641	2.22
248.021	2.18
248.401	2.13
248.781	2.12
249.162	2.15
249.542	2.1
249.922	2.07
250.302	2.22
250.682	2.24
251.062	2.2
251.442	2.15
251.822	2.22
252.202	2.21
252.582	2.21
252.961	2.19
253.341	2.22
253.721	2.26
254.101	2.25
254.48	2.29
254.86	2.33
255.24	2.47
255.619	2.81
255.999	2.57
256.378	2.57
256.758	2.61
257.137	2.58
257.517	2.43
257.896	2.45
258.276	2.4
258.655	2.15
259.034	1.97
259.414	1.84
259.793	1.65
260.172	1.7
260.551	1.55
260.93	1.49
261.309	1.41
261.688	1.4
262.068	1.36
262.447	1.39
262.825	1.42
263.204	1.42
263.583	1.49
263.962	1.52
264.341	1.52
264.72	1.63
265.099	1.63
265.477	1.68
265.856	1.6
266.235	1.46
266.613	1.33
266.992	1.3
267.371	1.31
267.749	1.36
268.128	1.34
268.506	1.33
268.884	1.36
269.263	1.37
269.641	1.35
270.02	1.38
270.398	1.42
270.776	1.5
271.154	1.51
271.533	1.54
271.911	1.44
272.289	1.39
272.667	1.41
273.045	1.37
273.423	1.37
273.801	1.36
274.179	1.35
274.557	1.34
274.935	1.3
275.313	1.27
275.69	1.23
276.068	1.21
276.446	1.26
276.824	1.27
277.201	1.29
277.579	1.28
277.957	1.3
278.334	1.28
278.712	1.29
279.089	1.27
279.467	1.35
279.844	1.37
280.222	1.38
280.599	1.4
280.976	1.34
281.354	1.31
281.731	1.37
282.108	1.41
282.485	1.39
282.863	1.46
283.24	1.45
283.617	1.44
283.994	1.41
284.371	1.44
284.748	1.43
285.125	1.47
285.502	1.49
285.879	1.46
286.256	1.49
286.633	1.56
287.009	1.57
287.386	1.63
287.763	1.68
288.139	1.76
288.516	1.81
288.893	1.84
289.269	1.9
289.646	1.96
290.022	2.01
290.399	2
290.775	2.02
291.152	2.05
291.528	2.09
291.904	2.08
292.281	2.1
292.657	2.14
293.033	2.24
293.41	2.31
293.786	2.39
294.162	2.46
294.538	2.61
294.914	2.72
295.29	2.79
295.666	2.89
296.042	3.02
296.418	3.13
296.794	3.27
297.17	3.33
297.546	3.44
297.921	3.52
298.297	3.62
298.673	3.7
299.048	3.81
299.424	3.92
299.8	4.04
300.175	4.17
300.551	4.27
300.926	4.36
301.302	4.48
301.677	4.56
302.053	4.68
302.428	4.75
302.803	4.83
303.179	4.91
303.554	5.01
303.929	5.11
304.304	5.17
304.68	5.26
305.055	5.37
305.43	5.45
305.805	5.52
306.18	5.57
306.555	5.68
306.93	5.76
307.305	5.79
307.679	5.83
308.054	5.83
308.429	5.84
308.804	5.89
309.179	5.86
309.553	5.86
309.928	5.89
310.303	5.97
310.677	5.98
311.052	6.01
311.426	6.05
311.801	6.07
312.175	6.13
312.55	6.19
312.924	6.19
313.298	6.24
313.673	6.31
314.047	6.34
314.421	6.34
314.795	6.4
315.17	6.46
315.544	6.52
315.918	6.62
316.292	6.65
316.666	6.73
317.04	6.85
317.414	6.98
317.788	7.11
318.162	7.24
318.535	7.39
318.909	7.54
319.283	7.68
319.657	7.85
320.03	8
320.404	8.25
320.778	8.67
321.151	9.18
321.525	9.8
321.898	10.52
322.272	11.34
322.645	12.18
323.019	13.03
323.392	14.02
323.765	15.09
324.139	16.17
324.512	17.33
324.885	18.54
325.258	19.66
325.632	20.63
326.005	21.51
326.378	22.2
326.751	22.76
327.124	23.17
327.497	23.52
327.87	23.71
328.243	23.95
328.616	24.11
328.988	24.22
329.361	24.2
329.734	24.18
330.107	24.11
330.479	24.01
330.852	23.9
331.225	23.76
331.597	23.59
331.97	23.4
332.342	23.11
332.715	22.82
333.087	22.54
333.46	22.28
333.832	22.13
334.204	21.99
334.577	21.92
334.949	21.82
335.321	21.72
335.693	21.63
336.065	21.4
336.438	21.22
336.81	21
337.182	20.87
337.554	20.73
337.926	20.53
338.298	20.37
338.669	20.2
339.041	20.07
339.413	19.98
339.785	19.86
340.157	19.82
340.528	19.76
340.9	19.67
341.272	19.62
341.643	19.56
342.015	19.57
342.386	19.69
342.758	19.8
343.129	19.95
343.501	20.07
343.872	20.18
344.243	20.19
344.615	20.12
344.986	20.1
345.357	20.07
345.728	20.04
346.099	20.03
346.471	20
346.842	19.97
347.213	20.01
347.584	20.02
347.955	20.02
348.326	20
348.697	19.99
349.067	20.01
349.438	20.05
349.809	20.09
350.18	20.23
350.55	20.3
350.921	20.39
351.292	20.48
351.662	20.55
352.033	20.62
352.403	20.68
352.774	20.75
353.144	20.79
353.515	20.81
353.885	20.86
354.255	20.86
354.626	20.88
354.996	20.91
355.366	20.91
355.736	20.92
356.107	20.93
356.477	20.95
356.847	20.92
357.217	20.98
357.587	21.04
357.957	21.05
358.327	21.12
358.697	21.17
359.066	21.22
359.436	21.26
359.806	21.3
360.176	21.35
360.546	21.39
360.915	21.45
361.285	21.49
361.654	21.5
362.024	21.51
362.393	21.52
362.763	21.56
363.132	21.53
363.502	21.56
363.871	21.59
364.24	21.63
364.61	21.69
364.979	21.76
365.348	21.83
365.717	21.88
366.087	21.97
366.456	22.05
366.825	22.13
367.194	22.26
367.563	22.36
367.932	22.49
368.301	22.6
368.669	22.69
369.038	22.77
369.407	22.84
369.776	22.93
370.145	23.04
370.513	23.11
370.882	23.17
371.25	23.26
371.619	23.38
371.988	23.46
372.356	23.55
372.724	23.69
373.093	23.85
373.461	23.98
373.83	24.1
374.198	24.24
374.566	24.42
374.934	24.51
375.303	24.63
375.671	24.72
376.039	24.83
376.407	24.96
376.775	25.07
377.143	25.18
377.511	25.3
377.879	25.45
378.247	25.6
378.615	25.71
378.982	25.92
379.35	26.1
379.718	26.28
380.086	26.43
380.453	26.57
380.821	26.71
381.188	26.84
381.556	27
381.923	27.12
382.291	27.24
382.658	27.39
383.026	27.5
383.393	27.62
383.76	27.77
384.128	27.92
384.495	28.09
384.862	28.23
385.229	28.4
385.596	28.53
385.963	28.69
386.33	28.82
386.697	28.98
387.064	29.14
387.431	29.28
387.798	29.41
388.165	29.56
388.532	29.66
388.899	29.76
389.265	29.87
389.632	30
389.999	30.08
390.365	30.18
390.732	30.27
391.098	30.32
391.465	30.39
391.831	30.42
392.198	30.51
392.564	30.59
392.93	30.69
393.297	30.78
393.663	30.85
394.029	30.97
394.395	31.06
394.762	31.16
395.128	31.28
395.494	31.39
395.86	31.53
396.226	31.59
396.592	31.68
396.958	31.76
397.323	31.85
397.689	31.95
398.055	32.03
398.421	32.11
398.787	32.19
399.152	32.27
399.518	32.33
399.883	32.39
400.249	32.48
400.615	32.56
400.98	32.63
401.345	32.66
401.711	32.71
402.076	32.73
402.442	32.76
402.807	32.8
403.172	32.82
403.537	32.87
403.902	32.9
404.268	32.97
404.633	32.99
404.998	33.02
405.363	33.06
405.728	33.07
406.093	33.14
406.457	33.17
406.822	33.22
407.187	33.28
407.552	33.32
407.917	33.38
408.281	33.37
408.646	33.44
409.011	33.5
409.375	33.55
409.74	33.6
410.104	33.62
410.469	33.66
410.833	33.69
411.197	33.71
411.562	33.77
411.926	33.77
412.29	33.8
412.655	33.83
413.019	33.86
413.383	33.88
413.747	33.95
414.111	34.03
414.475	34.11
414.839	34.18
415.203	34.26
415.567	34.31
415.931	34.39
416.295	34.47
416.658	34.49
417.022	34.56
417.386	34.61
417.749	34.6
418.113	34.57
418.477	34.58
418.84	34.61
419.204	34.62
419.567	34.64
419.931	34.65
420.294	34.67
420.657	34.72
421.021	34.75
421.384	34.82
421.747	34.91
422.11	35
422.473	35.01
422.836	35.03
423.199	35.06
423.562	35.1
423.925	35.14
424.288	35.16
424.651	35.18
425.014	35.17
425.377	35.17
425.74	35.17
426.102	35.18
426.465	35.25
426.828	35.31
427.19	35.34
427.553	35.37
427.916	35.39
428.278	35.41
428.641	35.44
429.003	35.47
429.365	35.49
429.728	35.52
430.09	35.5
430.452	35.46
430.814	35.42
431.177	35.41
431.539	35.41
431.901	35.45
432.263	35.51
432.625	35.56
432.987	35.62
433.349	35.68
433.711	35.76
434.072	35.89
434.434	36.03
434.796	36.21
435.158	36.36
435.519	36.47
435.881	36.56
436.243	36.65
436.604	36.73
436.966	36.83
437.327	36.89
437.689	36.91
438.05	36.95
438.411	36.98
438.773	37.01
439.134	37.04
439.495	37.07
439.856	37.13
440.218	37.16
440.579	37.22
440.94	37.28
441.301	37.38
441.662	37.49
442.023	37.58
442.384	37.62
442.745	37.67
443.105	37.75
443.466	37.84
443.827	37.87
444.188	37.94
444.548	37.99
444.909	38.01
445.269	38.04
445.63	38.07
445.99	38.07
446.351	38.15
446.711	38.18
447.072	38.22
447.432	38.28
447.792	38.4
448.153	38.46
448.513	38.52
448.873	38.6
449.233	38.64
449.593	38.66
449.953	38.73
450.313	38.79
450.673	38.79
451.033	38.83
451.393	38.86
451.753	38.9
452.113	39.42
452.472	39.43
452.832	39.4
453.192	39.42
453.551	39.43
453.911	39.46
454.271	39.48
454.63	39.54
454.989	39.59
455.349	39.62
455.708	39.65
456.068	39.41
456.427	39.46
456.786	39.54
457.145	39.62
457.505	39.73
457.864	39.88
458.223	40.04
458.582	40.22
458.941	40.37
459.3	40.49
459.659	40.6
460.018	40.72
460.376	40.82
460.735	40.89
461.094	40.96
461.453	41.05
461.811	41.05
462.17	41.09
462.529	41.1
462.887	41.12
463.246	41.19
463.604	41.25
463.963	41.31
464.321	41.27
464.679	41.35
465.038	41.43
465.396	41.49
465.754	41.6
466.112	41.71
466.47	41.84
466.828	41.98
467.186	42.1
467.544	42.23
467.902	42.34
468.26	42.6
468.618	42.71
468.976	42.83
469.334	42.93
469.692	43
470.049	43.06
470.407	43.08
470.765	43.15
471.122	43.23
471.48	43.35
471.837	43.51
472.195	43.63
472.552	43.8
472.909	43.95
473.267	44.11
473.624	44.28
473.981	44.4
474.338	44.54
474.696	44.66
475.053	44.78
475.41	44.9
475.767	45.02
476.124	45.17
476.481	45.27
476.838	45.38
477.194	45.51
477.551	45.63
477.908	45.77
478.265	45.94
478.621	46.05
478.978	46.2
479.335	46.37
479.691	46.5
480.048	46.62
480.404	46.73
480.761	46.87
481.117	46.99
481.473	47.12
481.83	47.27
482.186	47.39
482.542	47.55
482.898	47.67
483.255	47.79
483.611	47.9
483.967	48.07
484.323	48.25
484.679	48.37
485.035	48.5
485.39	48.62
485.746	48.76
486.102	48.89
486.458	49.01
486.814	49.16
487.169	49.27
487.525	49.41
487.88	49.52
488.236	49.62
488.591	49.76
488.947	49.88
489.302	50
489.658	50.09
490.013	50.16
490.368	50.27
490.723	50.33
491.079	50.43
491.434	50.51
491.789	50.6
492.144	50.7
492.499	50.81
492.854	50.93
493.209	51.07
493.564	51.21
493.919	51.39
494.273	51.52
494.628	51.66
494.983	51.8
495.338	51.92
495.692	52.02
496.047	52.16
496.401	52.24
496.756	52.31
497.11	52.37
497.465	52.42
497.819	52.49
498.173	52.56
498.528	52.7
498.882	52.85
499.236	53.04
499.59	53.21
499.944	53.37
500.298	53.56
500.652	53.7
501.006	53.84
501.36	53.95
501.714	54.02
502.068	54.13
502.422	54.19
502.776	54.27
503.129	54.35
503.483	54.46
503.837	54.59
504.19	54.71
504.544	54.82
504.897	54.88
505.251	54.95
505.604	54.97
505.958	54.98
506.311	55.01
506.664	54.98
507.017	54.94
507.371	54.84
507.724	54.74
508.077	54.63
508.43	54.59
508.783	54.61
509.136	54.62
509.489	54.7
509.842	54.75
510.195	54.78
510.547	54.82
510.9	54.86
511.253	54.94
511.606	54.99
511.958	54.98
512.311	54.97
512.663	54.93
513.016	54.9
513.368	54.85
513.721	54.81
514.073	54.75
514.425	54.75
514.778	54.73
515.13	54.71
515.482	54.68
515.834	54.69
516.186	54.71
516.538	54.77
516.89	54.85
517.242	54.93
517.594	55.04
517.946	55.14
518.298	55.2
518.65	55.27
519.001	55.28
519.353	55.33
519.705	55.35
520.056	55.35
520.408	55.27
520.759	55.25
521.111	55.2
521.462	55.19
521.814	55.21
522.165	55.2
522.516	55.21
522.868	55.23
523.219	55.23
523.57	55.19
523.921	55.18
524.272	55.21
524.623	55.15
524.974	55.11
525.325	55.03
525.676	54.96
526.027	54.88
526.378	54.81
526.728	54.73
527.079	54.72
527.43	54.76
527.78	54.7
528.131	54.68
528.481	54.68
528.832	54.71
529.182	54.75
529.533	54.78
529.883	54.83
530.233	54.83
530.584	54.85
530.934	54.8
531.284	54.72
531.634	54.72
531.984	54.7
532.334	54.65
532.684	54.57
533.034	54.53
533.384	54.49
533.734	54.43
534.084	54.38
534.434	54.37
534.783	54.36
535.133	54.34
535.483	54.3
535.832	54.23
536.182	54.19
536.531	54.16
536.881	54.09
537.23	54.01
537.58	53.93
537.929	53.87
538.278	55.03
538.628	54.91
538.977	54.84
539.326	54.79
539.675	54.73
540.024	54.66
540.373	54.61
540.722	54.53
541.071	54.5
541.42	54.49
541.769	54.47
542.117	53.23
542.466	53.22
542.815	53.19
543.163	53.15
543.512	53.09
543.861	53.05
544.209	53.01
544.558	52.99
544.906	52.92
545.254	52.85
545.603	52.77
545.951	52.73
546.299	52.72
546.647	52.72
546.996	52.69
547.344	52.66
547.692	52.63
548.04	52.6
548.388	52.56
548.736	52.55
549.083	52.52
549.431	52.48
549.779	52.36
550.127	52.26
550.475	52.14
550.822	52.03
551.17	52
551.517	51.94
551.865	51.86
552.212	51.81
552.56	51.77
552.907	51.71
553.254	51.64
553.602	51.57
553.949	51.48
554.296	51.35
554.643	51.3
554.99	51.16
555.337	51.06
555.684	50.93
556.031	50.8
556.378	50.68
556.725	50.55
557.072	50.44
557.419	50.32
557.765	50.2
558.112	50.15
558.459	50.02
558.805	49.9
559.152	49.8
559.498	49.69
559.845	49.59
560.191	49.43
560.538	49.31
560.884	49.16
561.23	49.08
561.576	48.98
561.923	48.84
562.269	48.79
562.615	48.73
562.961	48.63
563.307	48.55
563.653	48.44
563.999	48.32
564.344	48.24
564.69	48.21
565.036	48.12
565.382	48.07
565.727	47.98
566.073	47.81
566.419	47.68
566.764	47.56
567.11	47.43
567.455	47.31
567.8	47.24
568.146	47.07
568.491	46.94
568.836	46.83
569.181	46.69
569.527	46.59
569.872	46.48
570.217	46.35
570.562	46.24
570.907	46.16
571.252	46.08
571.597	45.99
571.941	45.91
572.286	45.83
572.631	45.82
572.976	45.7
573.32	45.68
573.665	45.58
574.009	45.45
574.354	45.43
574.698	45.38
575.043	45.33
575.387	45.29
575.731	45.26
576.076	45.16
576.42	45.15
576.764	45.13
577.108	45
577.452	44.98
577.796	44.85
578.14	44.76
578.484	44.7
578.828	44.62
579.172	44.59
579.516	44.55
579.86	44.37
580.203	44.3
580.547	44.22
580.891	44.12
581.234	44.03
581.578	43.98
581.921	43.89
582.264	43.78
582.608	43.73
582.951	43.67
583.294	43.57
583.638	43.49
583.981	43.43
584.324	43.39
584.667	43.3
585.01	43.21
585.353	43.15
585.696	43.12
586.039	43.05
586.382	42.93
586.725	42.92
587.067	42.87
587.41	42.83
587.753	42.79
588.095	42.78
588.438	42.76
588.781	42.72
589.123	42.67
589.465	42.64
589.808	42.59
590.15	42.55
590.492	42.51
590.835	42.46
591.177	42.4
591.519	42.31
591.861	42.22
592.203	42.2
592.545	42.14
592.887	42.07
593.229	42.04
593.571	41.92
593.913	41.86
594.254	41.78
594.596	41.72
594.938	41.68
595.279	41.61
595.621	41.47
595.963	41.38
596.304	41.34
596.645	41.2
596.987	41.19
597.328	41.16
597.669	41.03
598.011	40.94
598.352	40.85
598.693	40.76
599.034	40.71
599.375	40.59
599.716	40.57
600.057	40.5
600.398	40.47
600.739	40.4
601.08	40.33
601.42	40.2
601.761	40.16
602.102	40.08
602.442	39.97
602.783	39.9
603.123	39.85
603.464	39.82
603.804	39.69
604.145	39.63
604.485	39.52
604.825	39.45
605.166	39.37
605.506	39.33
605.846	39.26
606.186	39.16
606.526	39.09
606.866	38.98
607.206	38.93
607.546	38.78
607.886	38.74
608.225	38.67
608.565	38.58
608.905	38.51
609.245	38.5
609.584	38.44
609.924	38.39
610.263	38.38
610.603	38.25
610.942	38.16
611.281	38.08
611.621	38.05
611.96	37.94
612.299	37.85
612.638	37.82
612.978	37.72
613.317	37.64
613.656	37.56
613.995	37.5
614.334	37.47
614.672	37.37
615.011	37.32
615.35	37.24
615.689	37.23
616.027	37.14
616.366	37.05
616.705	37
617.043	36.94
617.382	36.82
617.72	36.71
618.059	36.64
618.397	36.61
618.735	36.48
619.073	36.47
619.412	36.36
619.75	36.26
620.088	36.19
620.426	36.16
620.764	36.1
621.102	36.08
621.44	36.04
621.778	35.98
622.115	35.87
622.453	35.81
622.791	35.77
623.129	35.71
623.466	35.59
623.804	35.5
624.141	35.42
624.479	35.42
624.816	35.27
625.153	35.21
625.491	35.16
625.828	35.14
626.165	35.12
626.502	34.95
626.84	34.92
627.177	34.83
627.514	34.68
627.851	34.57
628.188	34.45
628.524	34.29
628.861	34.18
629.198	34.06
629.535	33.91
629.871	33.79
630.208	33.64
630.545	33.56
630.881	33.4
631.218	33.28
631.554	33.12
631.89	33.03
632.227	32.89
632.563	32.81
632.899	32.67
633.235	32.6
633.572	32.48
633.908	32.33
634.244	32.2
634.58	32.05
634.916	31.95
635.251	31.82
635.587	31.66
635.923	31.59
636.259	31.44
636.595	31.32
636.93	31.17
637.266	31.09
637.601	31.01
637.937	30.96
638.272	30.9
638.608	30.72
638.943	30.61
639.278	30.47
639.613	30.33
639.949	30.24
640.284	30.11
640.619	30.02
640.954	29.85
641.289	29.75
641.624	29.57
641.959	29.44
642.294	29.33
642.628	29.21
642.963	29.15
643.298	29.03
643.632	28.92
643.967	28.79
644.302	28.68
644.636	28.62
644.971	28.45
645.305	28.32
645.639	28.19
645.974	28.07
646.308	27.94
646.642	27.81
646.976	27.73
647.31	27.59
647.644	27.5
647.978	27.4
648.312	27.25
648.646	27.16
648.98	27.1
649.314	27.05
649.647	26.97
649.981	26.9
650.315	26.74
650.648	26.65
650.982	26.54
651.315	26.4
651.649	26.28
651.982	26.19
652.316	26.14
652.649	26.04
652.982	25.91
653.315	25.86
653.648	25.78
653.982	25.76
654.315	25.62
654.648	25.49
654.981	25.44
655.313	25.44
655.646	25.41
655.979	25.34
656.312	25.25
656.644	25.17
656.977	25.1
657.31	24.99
657.642	24.87
657.975	24.77
658.307	24.7
658.64	24.65
658.972	24.49
659.304	24.34
659.636	24.18
659.969	24.1
660.301	24.08
660.633	23.97
660.965	23.89
661.297	23.78
661.629	23.74
661.961	23.69
662.292	23.58
662.624	23.5
662.956	23.48
663.288	23.48
663.619	23.41
663.951	23.29
664.282	23.21
664.614	23.13
664.945	23.08
665.276	22.98
665.608	22.94
665.939	22.89
666.27	22.81
666.601	22.7
666.933	22.58
667.264	22.54
667.595	22.49
667.926	22.47
668.256	22.33
668.587	22.32
668.918	22.27
669.249	22.17
669.58	22.03
669.91	21.99
670.241	21.9
670.571	21.8
670.902	21.77
671.232	21.65
671.563	21.48
671.893	21.46
672.223	21.4
672.554	21.36
