Data from thigh1_Reflection__0__11-51-02-068.txt Node

Date: Thu Aug 04 11:51:02 AEST 2022
User: kathy
Spectrometer: JAZA2503
Trigger mode: 0
Integration Time (sec): 2.883200E-1
Scans to average: 10
Electric dark correction enabled: true
Nonlinearity correction enabled: true
Boxcar width: 5
XAxis mode: Wavelengths
Number of Pixels in Spectrum: 2048
>>>>>Begin Spectral Data<<<<<
189.467	-96.84
189.852	-235.45
190.237	-5785.64
190.622	-319.04
191.007	-105.88
191.392	-202.89
191.777	-15.24
192.162	-182.21
192.546	-159.49
192.931	-275.74
193.316	-277.08
193.701	-337.83
194.086	183.47
194.47	94.61
194.855	168.79
195.24	3021.93
195.624	182.36
196.009	266.18
196.393	275.53
196.778	-1909.38
197.163	-68.28
197.547	-51.86
197.931	-26.79
198.316	9.07
198.7	10.26
199.085	-2.46
199.469	2.22
199.853	4.52
200.237	4.56
200.622	3.9
201.006	-0.81
201.39	-4.87
201.774	-4.64
202.158	-4.43
202.542	-11.22
202.926	-9
203.31	-8.16
203.694	-13.08
204.078	-23.23
204.462	-19.67
204.846	-15.26
205.23	-8.34
205.614	-9
205.998	-10.48
206.381	-7.62
206.765	-5.68
207.149	-4.39
207.532	2.41
207.916	5.52
208.3	10.39
208.683	7.75
209.067	8.45
209.45	11.27
209.834	15.01
210.217	19.33
210.601	19.18
210.984	19.58
211.367	21.94
211.751	22.53
212.134	20.39
212.517	19.47
212.901	24.89
213.284	24.01
213.667	23.81
214.05	22.95
214.433	21.33
214.816	22.31
215.199	25.7
215.582	21.54
215.965	20.27
216.348	19.11
216.731	20.43
217.114	16.28
217.497	12.68
217.88	11.54
218.262	7.42
218.645	5.35
219.028	2.54
219.411	-4.55
219.793	-5.13
220.176	-3.84
220.559	-5.29
220.941	-8.01
221.324	-9.96
221.706	-7.47
222.089	-5.76
222.471	-2.64
222.853	-3.68
223.236	-2.34
223.618	-0.75
224	0.88
224.383	-1.63
224.765	1.54
225.147	3.25
225.529	4.9
225.912	3.87
226.294	2.56
226.676	2.25
227.058	2.51
227.44	2.54
227.822	1.91
228.204	1.73
228.586	2.14
228.968	1.43
229.349	1.22
229.731	1.11
230.113	0.82
230.495	1.07
230.877	0.91
231.258	1.06
231.64	0.98
232.022	0.83
232.403	0.65
232.785	1.07
233.166	1.43
233.548	1.58
233.929	1.19
234.311	1.34
234.692	0.82
235.073	1
235.455	1.26
235.836	1.24
236.217	1.92
236.599	1.8
236.98	1.09
237.361	0.6
237.742	0.28
238.123	0.61
238.504	0.9
238.885	0.74
239.266	1.11
239.647	0.93
240.028	1.01
240.409	0.62
240.79	0.71
241.171	0.76
241.552	0.84
241.933	0.87
242.313	0.83
242.694	0.85
243.075	1.12
243.456	0.92
243.836	0.96
244.217	0.84
244.597	0.94
244.978	0.95
245.358	0.96
245.739	0.94
246.119	0.94
246.5	1
246.88	0.93
247.26	0.8
247.641	0.72
248.021	0.7
248.401	0.71
248.781	0.71
249.162	0.8
249.542	0.79
249.922	0.83
250.302	0.84
250.682	0.73
251.062	0.74
251.442	0.74
251.822	0.82
252.202	0.67
252.582	0.65
252.961	0.57
253.341	0.42
253.721	0.45
254.101	0.41
254.48	0.43
254.86	0.36
255.24	0.3
255.619	0.36
255.999	0.1
256.378	0.11
256.758	0.16
257.137	0.17
257.517	0.28
257.896	0.32
258.276	0.4
258.655	0.43
259.034	0.45
259.414	0.43
259.793	0.47
260.172	0.58
260.551	0.59
260.93	0.59
261.309	0.55
261.688	0.53
262.068	0.55
262.447	0.5
262.825	0.42
263.204	0.41
263.583	0.37
263.962	0.38
264.341	0.38
264.72	0.4
265.099	0.29
265.477	0.36
265.856	0.29
266.235	0.25
266.613	0.18
266.992	0.24
267.371	0.29
267.749	0.41
268.128	0.37
268.506	0.43
268.884	0.51
269.263	0.56
269.641	0.57
270.02	0.59
270.398	0.62
270.776	0.71
271.154	0.81
271.533	0.77
271.911	0.69
272.289	0.65
272.667	0.63
273.045	0.57
273.423	0.62
273.801	0.59
274.179	0.57
274.557	0.46
274.935	0.45
275.313	0.31
275.69	0.33
276.068	0.35
276.446	0.34
276.824	0.33
277.201	0.37
277.579	0.3
277.957	0.31
278.334	0.26
278.712	0.31
279.089	0.25
279.467	0.35
279.844	0.39
280.222	0.4
280.599	0.49
280.976	0.48
281.354	0.4
281.731	0.46
282.108	0.53
282.485	0.56
282.863	0.59
283.24	0.62
283.617	0.56
283.994	0.53
284.371	0.51
284.748	0.44
285.125	0.45
285.502	0.45
285.879	0.44
286.256	0.37
286.633	0.41
287.009	0.41
287.386	0.4
287.763	0.44
288.139	0.47
288.516	0.52
288.893	0.54
289.269	0.55
289.646	0.63
290.022	0.65
290.399	0.67
290.775	0.69
291.152	0.7
291.528	0.72
291.904	0.71
292.281	0.68
292.657	0.7
293.033	0.75
293.41	0.77
293.786	0.75
294.162	0.75
294.538	0.82
294.914	0.84
295.29	0.85
295.666	0.89
296.042	0.94
296.418	1
296.794	1.03
297.17	1.04
297.546	1.06
297.921	1.09
298.297	1.13
298.673	1.14
299.048	1.15
299.424	1.2
299.8	1.24
300.175	1.31
300.551	1.34
300.926	1.38
301.302	1.43
301.677	1.49
302.053	1.57
302.428	1.58
302.803	1.62
303.179	1.7
303.554	1.74
303.929	1.78
304.304	1.77
304.68	1.82
305.055	1.85
305.43	1.86
305.805	1.83
306.18	1.83
306.555	1.9
306.93	1.92
307.305	1.9
307.679	1.91
308.054	1.89
308.429	1.89
308.804	1.89
309.179	1.89
309.553	1.91
309.928	1.95
310.303	1.98
310.677	1.99
311.052	2.04
311.426	2.05
311.801	2.09
312.175	2.13
312.55	2.21
312.924	2.24
313.298	2.28
313.673	2.32
314.047	2.37
314.421	2.38
314.795	2.41
315.17	2.44
315.544	2.49
315.918	2.52
316.292	2.54
316.666	2.55
317.04	2.6
317.414	2.65
317.788	2.7
318.162	2.73
318.535	2.8
318.909	2.86
319.283	2.86
319.657	2.9
320.03	2.96
320.404	3.08
320.778	3.21
321.151	3.38
321.525	3.57
321.898	3.8
322.272	4.03
322.645	4.22
323.019	4.45
323.392	4.64
323.765	4.94
324.139	5.21
324.512	5.49
324.885	5.78
325.258	6.03
325.632	6.25
326.005	6.43
326.378	6.57
326.751	6.66
327.124	6.7
327.497	6.72
327.87	6.67
328.243	6.67
328.616	6.68
328.988	6.67
329.361	6.62
329.734	6.67
330.107	6.65
330.479	6.6
330.852	6.55
331.225	6.53
331.597	6.45
331.97	6.36
332.342	6.27
332.715	6.2
333.087	6.11
333.46	6.08
333.832	6.08
334.204	6.06
334.577	6.04
334.949	6.03
335.321	5.94
335.693	5.86
336.065	5.73
336.438	5.63
336.81	5.55
337.182	5.51
337.554	5.44
337.926	5.36
338.298	5.3
338.669	5.19
339.041	5.13
339.413	5.05
339.785	5.01
340.157	4.96
340.528	4.87
340.9	4.79
341.272	4.74
341.643	4.69
342.015	4.68
342.386	4.73
342.758	4.8
343.129	4.86
343.501	4.94
343.872	5.01
344.243	5.06
344.615	5.1
344.986	5.13
345.357	5.09
345.728	5.09
346.099	5.04
346.471	4.99
346.842	4.97
347.213	4.94
347.584	4.91
347.955	4.88
348.326	4.82
348.697	4.78
349.067	4.76
349.438	4.77
349.809	4.79
350.18	4.84
350.55	4.86
350.921	4.88
351.292	4.91
351.662	4.92
352.033	4.93
352.403	4.94
352.774	4.97
353.144	4.95
353.515	4.95
353.885	4.94
354.255	4.91
354.626	4.92
354.996	4.94
355.366	4.94
355.736	4.94
356.107	4.93
356.477	4.91
356.847	4.89
357.217	4.94
357.587	4.95
357.957	5
358.327	5.01
358.697	5.02
359.066	5.03
359.436	5.04
359.806	5.03
360.176	5.05
360.546	5.06
360.915	5.07
361.285	5.05
361.654	5.03
362.024	5.01
362.393	5.02
362.763	5.01
363.132	5.01
363.502	5.01
363.871	5.02
364.24	5.04
364.61	5.07
364.979	5.09
365.348	5.1
365.717	5.14
366.087	5.17
366.456	5.2
366.825	5.25
367.194	5.28
367.563	5.31
367.932	5.35
368.301	5.37
368.669	5.4
369.038	5.44
369.407	5.48
369.776	5.51
370.145	5.54
370.513	5.57
370.882	5.6
371.25	5.64
371.619	5.71
371.988	5.77
372.356	5.81
372.724	5.86
373.093	5.93
373.461	5.98
373.83	6.03
374.198	6.09
374.566	6.15
374.934	6.17
375.303	6.21
375.671	6.24
376.039	6.27
376.407	6.35
376.775	6.38
377.143	6.42
377.511	6.47
377.879	6.52
378.247	6.59
378.615	6.63
378.982	6.73
379.35	6.82
379.718	6.89
380.086	6.96
380.453	6.99
380.821	7.08
381.188	7.13
381.556	7.19
381.923	7.26
382.291	7.3
382.658	7.36
383.026	7.41
383.393	7.45
383.76	7.49
384.128	7.54
384.495	7.6
384.862	7.64
385.229	7.7
385.596	7.76
385.963	7.83
386.33	7.89
386.697	7.96
387.064	8.02
387.431	8.09
387.798	8.16
388.165	8.22
388.532	8.28
388.899	8.33
389.265	8.37
389.632	8.42
389.999	8.44
390.365	8.47
390.732	8.5
391.098	8.51
391.465	8.55
391.831	8.57
392.198	8.59
392.564	8.62
392.93	8.65
393.297	8.68
393.663	8.7
394.029	8.74
394.395	8.77
394.762	8.81
395.128	8.84
395.494	8.87
395.86	8.91
396.226	8.94
396.592	8.97
396.958	8.99
397.323	9.03
397.689	9.06
398.055	9.09
398.421	9.11
398.787	9.14
399.152	9.16
399.518	9.18
399.883	9.21
400.249	9.24
400.615	9.28
400.98	9.31
401.345	9.31
401.711	9.33
402.076	9.35
402.442	9.38
402.807	9.4
403.172	9.44
403.537	9.46
403.902	9.48
404.268	9.5
404.633	9.5
404.998	9.52
405.363	9.53
405.728	9.55
406.093	9.57
406.457	9.57
406.822	9.61
407.187	9.63
407.552	9.62
407.917	9.62
408.281	9.63
408.646	9.67
409.011	9.7
409.375	9.71
409.74	9.74
410.104	9.76
410.469	9.76
410.833	9.77
411.197	9.76
411.562	9.8
411.926	9.81
412.29	9.82
412.655	9.81
413.019	9.81
413.383	9.84
413.747	9.85
414.111	9.87
414.475	9.88
414.839	9.88
415.203	9.9
415.567	9.9
415.931	9.92
416.295	9.95
416.658	9.96
417.022	9.97
417.386	9.97
417.749	9.97
418.113	9.96
418.477	9.98
418.84	9.99
419.204	10.01
419.567	10.02
419.931	10.01
420.294	10.01
420.657	10.03
421.021	10.05
421.384	10.08
421.747	10.08
422.11	10.1
422.473	10.11
422.836	10.12
423.199	10.1
423.562	10.1
423.925	10.11
424.288	10.1
424.651	10.11
425.014	10.11
425.377	10.11
425.74	10.1
426.102	10.11
426.465	10.12
426.828	10.12
427.19	10.13
427.553	10.15
427.916	10.16
428.278	10.19
428.641	10.16
429.003	10.15
429.365	10.15
429.728	10.16
430.09	10.15
430.452	10.15
430.814	10.15
431.177	10.14
431.539	10.12
431.901	10.13
432.263	10.14
432.625	10.16
432.987	10.17
433.349	10.18
433.711	10.2
434.072	10.24
434.434	10.25
434.796	10.27
435.158	10.33
435.519	10.38
435.881	10.4
436.243	10.42
436.604	10.43
436.966	10.47
437.327	10.47
437.689	10.49
438.05	10.48
438.411	10.51
438.773	10.53
439.134	10.54
439.495	10.55
439.856	10.56
440.218	10.57
440.579	10.59
440.94	10.6
441.301	10.64
441.662	10.66
442.023	10.68
442.384	10.69
442.745	10.71
443.105	10.71
443.466	10.72
443.827	10.71
444.188	10.72
444.548	10.73
444.909	10.75
445.269	10.76
445.63	10.77
445.99	10.77
446.351	10.78
446.711	10.76
447.072	10.77
447.432	10.76
447.792	10.79
448.153	10.77
448.513	10.78
448.873	10.76
449.233	10.76
449.593	10.73
449.953	10.74
450.313	10.73
450.673	10.72
451.033	10.71
451.393	10.7
451.753	10.67
452.113	11.03
452.472	10.99
452.832	10.95
453.192	10.9
453.551	10.88
453.911	10.85
454.271	10.82
454.63	10.81
454.989	10.78
455.349	10.77
455.708	10.77
456.068	10.57
456.427	10.56
456.786	10.57
457.145	10.58
457.505	10.59
457.864	10.61
458.223	10.64
458.582	10.66
458.941	10.7
459.3	10.7
459.659	10.71
460.018	10.71
460.376	10.72
460.735	10.72
461.094	10.71
461.453	10.7
461.811	10.68
462.17	10.66
462.529	10.64
462.887	10.62
463.246	10.6
463.604	10.6
463.963	10.62
464.321	10.51
464.679	10.5
465.038	10.52
465.396	10.52
465.754	10.53
466.112	10.54
466.47	10.54
466.828	10.55
467.186	10.55
467.544	10.56
467.902	10.57
468.26	10.72
468.618	10.74
468.976	10.75
469.334	10.76
469.692	10.76
470.049	10.75
470.407	10.76
470.765	10.76
471.122	10.79
471.48	10.8
471.837	10.83
472.195	10.84
472.552	10.87
472.909	10.87
473.267	10.89
473.624	10.92
473.981	10.94
474.338	10.93
474.696	10.94
475.053	10.96
475.41	10.95
475.767	10.95
476.124	10.97
476.481	10.96
476.838	10.98
477.194	11.01
477.551	11.03
477.908	11.06
478.265	11.08
478.621	11.1
478.978	11.1
479.335	11.13
479.691	11.15
480.048	11.16
480.404	11.18
480.761	11.19
481.117	11.19
481.473	11.2
481.83	11.22
482.186	11.24
482.542	11.26
482.898	11.28
483.255	11.29
483.611	11.31
483.967	11.34
484.323	11.37
484.679	11.39
485.035	11.42
485.39	11.41
485.746	11.42
486.102	11.42
486.458	11.42
486.814	11.44
487.169	11.46
487.525	11.45
487.88	11.44
488.236	11.43
488.591	11.44
488.947	11.43
489.302	11.44
489.658	11.44
490.013	11.44
490.368	11.44
490.723	11.41
491.079	11.39
491.434	11.4
491.789	11.39
492.144	11.39
492.499	11.37
492.854	11.36
493.209	11.36
493.564	11.35
493.919	11.34
494.273	11.36
494.628	11.35
494.983	11.33
495.338	11.33
495.692	11.34
496.047	11.32
496.401	11.3
496.756	11.29
497.11	11.27
497.465	11.24
497.819	11.23
498.173	11.2
498.528	11.18
498.882	11.18
499.236	11.17
499.59	11.16
499.944	11.18
500.298	11.19
500.652	11.18
501.006	11.18
501.36	11.18
501.714	11.17
502.068	11.17
502.422	11.17
502.776	11.16
503.129	11.16
503.483	11.15
503.837	11.13
504.19	11.13
504.544	11.11
504.897	11.09
505.251	11.07
505.604	11.04
505.958	10.99
506.311	10.96
506.664	10.93
507.017	10.88
507.371	10.84
507.724	10.78
508.077	10.73
508.43	10.69
508.783	10.66
509.136	10.62
509.489	10.62
509.842	10.6
510.195	10.57
510.547	10.55
510.9	10.52
511.253	10.48
511.606	10.45
511.958	10.39
512.311	10.36
512.663	10.3
513.016	10.27
513.368	10.23
513.721	10.19
514.073	10.16
514.425	10.12
514.778	10.1
515.13	10.08
515.482	10.05
515.834	10.03
516.186	10.01
516.538	10
516.89	9.99
517.242	9.97
517.594	9.96
517.946	9.95
518.298	9.95
518.65	9.94
519.001	9.9
519.353	9.89
519.705	9.87
520.056	9.84
520.408	9.8
520.759	9.75
521.111	9.71
521.462	9.68
521.814	9.65
522.165	9.61
522.516	9.56
522.868	9.55
523.219	9.49
523.57	9.45
523.921	9.42
524.272	9.39
524.623	9.35
524.974	9.32
525.325	9.28
525.676	9.24
526.027	9.21
526.378	9.18
526.728	9.15
527.079	9.12
527.43	9.09
527.78	9.07
528.131	9.06
528.481	9.03
528.832	9
529.182	8.98
529.533	8.96
529.883	8.94
530.233	8.89
530.584	8.85
530.934	8.84
531.284	8.81
531.634	8.76
531.984	8.72
532.334	8.69
532.684	8.67
533.034	8.63
533.384	8.6
533.734	8.57
534.084	8.55
534.434	8.51
534.783	8.48
535.133	8.43
535.483	8.41
535.832	8.4
536.182	8.37
536.531	8.33
536.881	8.31
537.23	8.28
537.58	8.24
537.929	8.21
538.278	8.79
538.628	8.76
538.977	8.74
539.326	8.71
539.675	8.67
540.024	8.61
540.373	8.56
540.722	8.48
541.071	8.44
541.42	8.42
541.769	8.4
542.117	7.76
542.466	7.71
542.815	7.69
543.163	7.67
543.512	7.65
543.861	7.64
544.209	7.61
544.558	7.62
544.906	7.6
545.254	7.56
545.603	7.54
545.951	7.54
546.299	7.56
546.647	7.56
546.996	7.54
547.344	7.52
547.692	7.5
548.04	7.5
548.388	7.48
548.736	7.48
549.083	7.46
549.431	7.43
549.779	7.4
550.127	7.36
550.475	7.3
550.822	7.27
551.17	7.24
551.517	7.23
551.865	7.21
552.212	7.19
552.56	7.15
552.907	7.12
553.254	7.1
553.602	7.07
553.949	7.03
554.296	7.01
554.643	6.99
554.99	6.96
555.337	6.9
555.684	6.86
556.031	6.83
556.378	6.78
556.725	6.77
557.072	6.75
557.419	6.74
557.765	6.72
558.112	6.72
558.459	6.71
558.805	6.71
559.152	6.7
559.498	6.66
559.845	6.64
560.191	6.61
560.538	6.58
560.884	6.55
561.23	6.52
561.576	6.45
561.923	6.38
562.269	6.32
562.615	6.29
562.961	6.27
563.307	6.28
563.653	6.28
563.999	6.24
564.344	6.24
564.69	6.24
565.036	6.25
565.382	6.27
565.727	6.3
566.073	6.28
566.419	6.27
566.764	6.26
567.11	6.23
567.455	6.17
567.8	6.17
568.146	6.15
568.491	6.12
568.836	6.06
569.181	6.05
569.527	6.04
569.872	6.03
570.217	6.01
570.562	5.96
570.907	5.93
571.252	5.95
571.597	5.95
571.941	5.92
572.286	5.91
572.631	5.89
572.976	5.89
573.32	5.83
573.665	5.83
574.009	5.8
574.354	5.8
574.698	5.8
575.043	5.78
575.387	5.78
575.731	5.76
576.076	5.76
576.42	5.76
576.764	5.74
577.108	5.73
577.452	5.71
577.796	5.7
578.14	5.69
578.484	5.64
578.828	5.64
579.172	5.65
579.516	5.62
579.86	5.61
580.203	5.61
580.547	5.59
580.891	5.56
581.234	5.55
581.578	5.54
581.921	5.54
582.264	5.53
582.608	5.52
582.951	5.51
583.294	5.51
583.638	5.5
583.981	5.5
584.324	5.5
584.667	5.49
585.01	5.48
585.353	5.47
585.696	5.47
586.039	5.47
586.382	5.44
586.725	5.43
587.067	5.41
587.41	5.41
587.753	5.41
588.095	5.43
588.438	5.44
588.781	5.44
589.123	5.42
589.465	5.41
589.808	5.39
590.15	5.38
590.492	5.37
590.835	5.34
591.177	5.32
591.519	5.3
591.861	5.28
592.203	5.27
592.545	5.27
592.887	5.27
593.229	5.26
593.571	5.24
593.913	5.23
594.254	5.21
594.596	5.21
594.938	5.21
595.279	5.18
595.621	5.16
595.963	5.16
596.304	5.16
596.645	5.16
596.987	5.16
597.328	5.15
597.669	5.15
598.011	5.16
598.352	5.17
598.693	5.18
599.034	5.18
599.375	5.18
599.716	5.19
600.057	5.18
600.398	5.16
600.739	5.16
601.08	5.16
601.42	5.16
601.761	5.16
602.102	5.14
602.442	5.14
602.783	5.14
603.123	5.13
603.464	5.13
603.804	5.12
604.145	5.1
604.485	5.1
604.825	5.06
605.166	5.05
605.506	5.05
605.846	5.04
606.186	5.04
606.526	5.03
606.866	5.03
607.206	5.03
607.546	5.03
607.886	5.03
608.225	5.01
608.565	5
608.905	4.99
609.245	4.99
609.584	5
609.924	5
610.263	5
610.603	5
610.942	4.99
611.281	4.98
611.621	4.96
611.96	4.96
612.299	4.98
612.638	5
612.978	5
613.317	4.98
613.656	4.96
613.995	4.93
614.334	4.9
614.672	4.89
615.011	4.89
615.35	4.89
615.689	4.89
616.027	4.89
616.366	4.88
616.705	4.85
617.043	4.84
617.382	4.83
617.72	4.82
618.059	4.8
618.397	4.78
618.735	4.76
619.073	4.75
619.412	4.74
619.75	4.71
620.088	4.69
620.426	4.7
620.764	4.7
621.102	4.69
621.44	4.69
621.778	4.69
622.115	4.69
622.453	4.69
622.791	4.69
623.129	4.69
623.466	4.69
623.804	4.7
624.141	4.7
624.479	4.7
624.816	4.7
625.153	4.72
625.491	4.73
625.828	4.76
626.165	4.76
626.502	4.75
626.84	4.74
627.177	4.76
627.514	4.75
627.851	4.76
628.188	4.73
628.524	4.7
628.861	4.69
629.198	4.66
629.535	4.62
629.871	4.58
630.208	4.57
630.545	4.58
630.881	4.53
631.218	4.52
631.554	4.48
631.89	4.48
632.227	4.48
632.563	4.49
632.899	4.51
633.235	4.49
633.572	4.47
633.908	4.46
634.244	4.46
634.58	4.45
634.916	4.45
635.251	4.49
635.587	4.47
635.923	4.47
636.259	4.45
636.595	4.4
636.93	4.43
637.266	4.45
637.601	4.42
637.937	4.4
638.272	4.44
638.608	4.43
638.943	4.38
639.278	4.39
639.613	4.37
639.949	4.32
640.284	4.33
640.619	4.3
640.954	4.28
641.289	4.32
641.624	4.3
641.959	4.2
642.294	4.14
642.628	4.13
642.963	4.13
643.298	4.12
643.632	4.16
643.967	4.15
644.302	4.13
644.636	4.11
644.971	4.1
645.305	4.07
645.639	4.16
645.974	4.15
646.308	4.14
646.642	4.15
646.976	4.19
647.31	4.16
647.644	4.13
647.978	4.18
648.312	4.15
648.646	4.13
648.98	4.18
649.314	4.13
649.647	4.14
649.981	4.12
650.315	4.06
650.648	4.01
650.982	3.97
651.315	3.98
651.649	3.91
651.982	3.9
652.316	3.89
652.649	3.84
652.982	3.82
653.315	3.87
653.648	3.94
653.982	3.96
654.315	3.91
654.648	3.9
654.981	3.88
655.313	3.9
655.646	3.92
655.979	3.95
656.312	3.91
656.644	3.94
656.977	3.9
657.31	3.84
657.642	3.8
657.975	3.81
658.307	3.8
658.64	3.87
658.972	3.87
659.304	3.85
659.636	3.8
659.969	3.81
660.301	3.83
660.633	3.83
660.965	3.84
661.297	3.88
661.629	3.9
661.961	3.91
662.292	3.88
662.624	3.87
662.956	3.88
663.288	3.91
663.619	3.95
663.951	3.94
664.282	3.88
664.614	3.87
664.945	3.82
665.276	3.8
665.608	3.79
665.939	3.75
666.27	3.74
666.601	3.71
666.933	3.69
667.264	3.65
667.595	3.62
667.926	3.68
668.256	3.61
668.587	3.61
668.918	3.67
669.249	3.64
669.58	3.63
669.91	3.6
670.241	3.63
670.571	3.62
670.902	3.69
671.232	3.59
671.563	3.5
671.893	3.51
672.223	3.5
672.554	3.45
672.884	3.52
673.214	3.51
673.544	3.54
673.874	3.51
674.204	3.52
674.534	3.45
674.864	3.56
675.194	3.59
675.524	3.7
675.853	3.74
676.183	3.73
676.513	3.65
676.842	3.7
677.172	3.71
677.501	3.75
677.831	3.74
678.16	3.75
678.489	3.73
678.819	3.76
679.148	3.66
679.477	3.62
679.806	3.6
680.135	3.65
680.464	3.59
680.793	3.59
681.122	3.54
681.451	3.49
681.78	3.53
682.108	3.48
682.437	3.46
682.766	3.43
683.094	3.43
683.423	3.36
683.751	3.31
684.08	3.3
684.408	3.24
684.737	3.24
685.065	3.29
685.393	3.21
685.721	3.24
686.049	3.24
686.377	3.3
686.705	3.24
687.033	3.33
687.361	3.45
687.689	3.49
688.017	3.55
688.345	3.56
688.673	3.51
689.0	3.51
689.328	3.46
