Data from groin2_Reflection__1__11-41-32-171.txt Node

Date: Thu Aug 04 11:41:32 AEST 2022
User: kathy
Spectrometer: JAZA2503
Trigger mode: 0
Integration Time (sec): 2.883200E-1
Scans to average: 10
Electric dark correction enabled: true
Nonlinearity correction enabled: true
Boxcar width: 5
XAxis mode: Wavelengths
Number of Pixels in Spectrum: 2048
>>>>>Begin Spectral Data<<<<<
189.467	-108.63
189.852	-328.5
190.237	-7977.28
190.622	-463.24
191.007	-128.36
191.392	-211.44
191.777	-337.02
192.162	-104.36
192.546	-107.1
192.931	-377.6
193.316	-267.91
193.701	-222.72
194.086	229.69
194.47	139.92
194.855	173.75
195.24	40.25
195.624	-115.36
196.009	712.11
196.393	563.29
196.778	-3556.26
197.163	-336.67
197.547	-131.9
197.931	-58.21
198.316	-28.02
198.7	-17.21
199.085	-11.71
199.469	-5.76
199.853	8.79
200.237	16.31
200.622	16.93
201.006	16.8
201.39	13.21
201.774	11.22
202.158	5.41
202.542	-0.07
202.926	-5.96
203.31	-13.49
203.694	-15.84
204.078	-35.22
204.462	-40.48
204.846	-42.15
205.23	-39.01
205.614	-41.43
205.998	-45.32
206.381	-39.68
206.765	-38.55
207.149	-34.4
207.532	-20.63
207.916	-20.16
208.3	-13.32
208.683	-7.13
209.067	-6.01
209.45	-1.67
209.834	3.92
210.217	8.92
210.601	10.51
210.984	9.05
211.367	13.52
211.751	14.01
212.134	12.85
212.517	10.78
212.901	9.15
213.284	9.43
213.667	11.75
214.05	7.5
214.433	7.57
214.816	8.66
215.199	10.38
215.582	5.1
215.965	0.54
216.348	-0.11
216.731	3.88
217.114	2.94
217.497	-2.05
217.88	-8.12
218.262	-6
218.645	-6.46
219.028	-8.05
219.411	-9.12
219.793	-6.15
220.176	-2.67
220.559	-1.77
220.941	-2.05
221.324	-1.65
221.706	4.57
222.089	6.58
222.471	8.22
222.853	6.76
223.236	8.91
223.618	10.69
224	12.26
224.383	10.19
224.765	11.05
225.147	9.75
225.529	9.66
225.912	7.9
226.294	7.03
226.676	6
227.058	5.35
227.44	3.55
227.822	3
228.204	1.9
228.586	1.77
228.968	1.18
229.349	1.33
229.731	1.49
230.113	1.02
230.495	1.13
230.877	1.04
231.258	1.08
231.64	1.48
232.022	1.24
232.403	1.34
232.785	1.7
233.166	1.78
233.548	1.84
233.929	1.51
234.311	1.87
234.692	1.61
235.073	1.6
235.455	1.94
235.836	1.54
236.217	1.84
236.599	1.48
236.98	1.25
237.361	0.94
237.742	0.62
238.123	0.68
238.504	0.77
238.885	0.49
239.266	0.43
239.647	0
240.028	0.19
240.409	0.36
240.79	0.76
241.171	0.76
241.552	0.86
241.933	1.01
242.313	1
242.694	1.07
243.075	1.42
243.456	1.36
243.836	1.65
244.217	1.7
244.597	1.74
244.978	1.74
245.358	1.84
245.739	1.96
246.119	1.88
246.5	1.91
246.88	1.82
247.26	1.66
247.641	1.66
248.021	1.57
248.401	1.5
248.781	1.41
249.162	1.37
249.542	1.35
249.922	1.34
250.302	1.39
250.682	1.39
251.062	1.39
251.442	1.36
251.822	1.42
252.202	1.34
252.582	1.34
252.961	1.31
253.341	1.44
253.721	1.43
254.101	1.43
254.48	1.49
254.86	1.33
255.24	1.43
255.619	1.59
255.999	1.34
256.378	1.43
256.758	1.49
257.137	1.51
257.517	1.45
257.896	1.46
258.276	1.36
258.655	1.22
259.034	1.18
259.414	1.06
259.793	0.91
260.172	0.96
260.551	0.9
260.93	0.83
261.309	0.79
261.688	0.75
262.068	0.7
262.447	0.7
262.825	0.67
263.204	0.69
263.583	0.68
263.962	0.8
264.341	0.88
264.72	0.91
265.099	0.94
265.477	1.02
265.856	0.96
266.235	0.92
266.613	0.86
266.992	0.83
267.371	0.82
267.749	0.87
268.128	0.83
268.506	0.8
268.884	0.8
269.263	0.79
269.641	0.7
270.02	0.69
270.398	0.72
270.776	0.77
271.154	0.89
271.533	0.89
271.911	0.88
272.289	0.83
272.667	0.82
273.045	0.8
273.423	0.8
273.801	0.82
274.179	0.79
274.557	0.76
274.935	0.78
275.313	0.62
275.69	0.61
276.068	0.58
276.446	0.56
276.824	0.57
277.201	0.59
277.579	0.61
277.957	0.65
278.334	0.64
278.712	0.67
279.089	0.62
279.467	0.78
279.844	0.84
280.222	0.82
280.599	0.92
280.976	0.92
281.354	0.87
281.731	0.89
282.108	0.87
282.485	0.88
282.863	0.91
283.24	0.94
283.617	0.91
283.994	0.87
284.371	0.9
284.748	0.85
285.125	0.84
285.502	0.87
285.879	0.84
286.256	0.84
286.633	0.91
287.009	0.9
287.386	0.95
287.763	0.98
288.139	1.02
288.516	1.06
288.893	1.07
289.269	1.09
289.646	1.14
290.022	1.15
290.399	1.15
290.775	1.17
291.152	1.19
291.528	1.14
291.904	1.13
292.281	1.13
292.657	1.14
293.033	1.17
293.41	1.23
293.786	1.26
294.162	1.31
294.538	1.42
294.914	1.46
295.29	1.5
295.666	1.58
296.042	1.64
296.418	1.67
296.794	1.73
297.17	1.78
297.546	1.81
297.921	1.84
298.297	1.89
298.673	1.89
299.048	1.92
299.424	1.95
299.8	1.98
300.175	2.05
300.551	2.1
300.926	2.15
301.302	2.19
301.677	2.24
302.053	2.32
302.428	2.35
302.803	2.43
303.179	2.5
303.554	2.57
303.929	2.67
304.304	2.7
304.68	2.74
305.055	2.81
305.43	2.86
305.805	2.89
306.18	2.88
306.555	2.92
306.93	2.97
307.305	2.96
307.679	2.97
308.054	2.93
308.429	2.94
308.804	2.97
309.179	2.95
309.553	2.95
309.928	2.97
310.303	3
310.677	3.02
311.052	3.02
311.426	3.04
311.801	3.07
312.175	3.11
312.55	3.13
312.924	3.12
313.298	3.12
313.673	3.17
314.047	3.19
314.421	3.21
314.795	3.23
315.17	3.27
315.544	3.3
315.918	3.34
316.292	3.36
316.666	3.4
317.04	3.46
317.414	3.51
317.788	3.54
318.162	3.58
318.535	3.6
318.909	3.66
319.283	3.66
319.657	3.71
320.03	3.75
320.404	3.83
320.778	3.97
321.151	4.15
321.525	4.33
321.898	4.52
322.272	4.7
322.645	4.81
323.019	5.01
323.392	5.23
323.765	5.47
324.139	5.78
324.512	6.08
324.885	6.32
325.258	6.54
325.632	6.71
326.005	6.84
326.378	6.95
326.751	7.07
327.124	7.18
327.497	7.21
327.87	7.23
328.243	7.22
328.616	7.26
328.988	7.27
329.361	7.23
329.734	7.26
330.107	7.19
330.479	7.15
330.852	7.08
331.225	7.07
331.597	7.02
331.97	6.96
332.342	6.9
332.715	6.81
333.087	6.7
333.46	6.63
333.832	6.62
334.204	6.57
334.577	6.51
334.949	6.5
335.321	6.45
335.693	6.36
336.065	6.24
336.438	6.19
336.81	6.16
337.182	6.13
337.554	6.1
337.926	6.04
338.298	5.98
338.669	5.88
339.041	5.83
339.413	5.77
339.785	5.7
340.157	5.65
340.528	5.58
340.9	5.51
341.272	5.43
341.643	5.39
342.015	5.39
342.386	5.45
342.758	5.5
343.129	5.54
343.501	5.59
343.872	5.61
344.243	5.62
344.615	5.6
344.986	5.6
345.357	5.64
345.728	5.65
346.099	5.59
346.471	5.58
346.842	5.54
347.213	5.48
347.584	5.43
347.955	5.41
348.326	5.38
348.697	5.32
349.067	5.31
349.438	5.32
349.809	5.35
350.18	5.39
350.55	5.37
350.921	5.38
351.292	5.41
351.662	5.4
352.033	5.41
352.403	5.43
352.774	5.46
353.144	5.42
353.515	5.41
353.885	5.39
354.255	5.37
354.626	5.38
354.996	5.4
355.366	5.4
355.736	5.41
356.107	5.4
356.477	5.39
356.847	5.35
357.217	5.38
357.587	5.41
357.957	5.42
358.327	5.43
358.697	5.45
359.066	5.43
359.436	5.43
359.806	5.44
360.176	5.45
360.546	5.44
360.915	5.45
361.285	5.44
361.654	5.41
362.024	5.4
362.393	5.38
362.763	5.37
363.132	5.38
363.502	5.4
363.871	5.4
364.24	5.41
364.61	5.43
364.979	5.45
365.348	5.47
365.717	5.49
366.087	5.52
366.456	5.56
366.825	5.6
367.194	5.62
367.563	5.63
367.932	5.66
368.301	5.68
368.669	5.69
369.038	5.69
369.407	5.74
369.776	5.76
370.145	5.78
370.513	5.78
370.882	5.79
371.25	5.81
371.619	5.85
371.988	5.86
372.356	5.86
372.724	5.89
373.093	5.95
373.461	5.96
373.83	5.99
374.198	6.01
374.566	6.06
374.934	6.1
375.303	6.14
375.671	6.14
376.039	6.17
376.407	6.22
376.775	6.25
377.143	6.28
377.511	6.31
377.879	6.34
378.247	6.39
378.615	6.41
378.982	6.46
379.35	6.51
379.718	6.56
380.086	6.6
380.453	6.65
380.821	6.71
381.188	6.74
381.556	6.8
381.923	6.85
382.291	6.88
382.658	6.93
383.026	6.96
383.393	7
383.76	7.05
384.128	7.11
384.495	7.16
384.862	7.2
385.229	7.24
385.596	7.29
385.963	7.33
386.33	7.38
386.697	7.43
387.064	7.48
387.431	7.52
387.798	7.55
388.165	7.59
388.532	7.62
388.899	7.66
389.265	7.68
389.632	7.7
389.999	7.72
390.365	7.73
390.732	7.75
391.098	7.77
391.465	7.79
391.831	7.82
392.198	7.84
392.564	7.87
392.93	7.9
393.297	7.94
393.663	7.95
394.029	7.98
394.395	8.03
394.762	8.08
395.128	8.11
395.494	8.13
395.86	8.18
396.226	8.2
396.592	8.23
396.958	8.26
397.323	8.28
397.689	8.33
398.055	8.36
398.421	8.38
398.787	8.41
399.152	8.44
399.518	8.48
399.883	8.5
400.249	8.52
400.615	8.56
400.98	8.6
401.345	8.64
401.711	8.66
402.076	8.68
402.442	8.71
402.807	8.71
403.172	8.74
403.537	8.76
403.902	8.77
404.268	8.8
404.633	8.8
404.998	8.82
405.363	8.83
405.728	8.86
406.093	8.87
406.457	8.89
406.822	8.93
407.187	8.97
407.552	9
407.917	9.01
408.281	9.05
408.646	9.09
409.011	9.12
409.375	9.14
409.74	9.15
410.104	9.2
410.469	9.23
410.833	9.24
411.197	9.25
411.562	9.28
411.926	9.31
412.29	9.32
412.655	9.31
413.019	9.32
413.383	9.35
413.747	9.39
414.111	9.4
414.475	9.42
414.839	9.43
415.203	9.46
415.567	9.46
415.931	9.5
416.295	9.55
416.658	9.57
417.022	9.58
417.386	9.59
417.749	9.6
418.113	9.62
418.477	9.62
418.84	9.65
419.204	9.68
419.567	9.68
419.931	9.69
420.294	9.71
420.657	9.76
421.021	9.78
421.384	9.82
421.747	9.84
422.11	9.87
422.473	9.9
422.836	9.94
423.199	9.94
423.562	9.95
423.925	9.97
424.288	9.96
424.651	9.97
425.014	9.97
425.377	9.98
425.74	9.99
426.102	10.01
426.465	10.05
426.828	10.05
427.19	10.08
427.553	10.11
427.916	10.13
428.278	10.18
428.641	10.18
429.003	10.2
429.365	10.21
429.728	10.24
430.09	10.23
430.452	10.22
430.814	10.24
431.177	10.24
431.539	10.27
431.901	10.3
432.263	10.33
432.625	10.37
432.987	10.42
433.349	10.47
433.711	10.49
434.072	10.55
434.434	10.59
434.796	10.63
435.158	10.7
435.519	10.73
435.881	10.76
436.243	10.77
436.604	10.78
436.966	10.79
437.327	10.81
437.689	10.86
438.05	10.88
438.411	10.93
438.773	10.96
439.134	10.98
439.495	11.03
439.856	11.06
440.218	11.1
440.579	11.15
440.94	11.17
441.301	11.22
441.662	11.25
442.023	11.31
442.384	11.34
442.745	11.4
443.105	11.4
443.466	11.42
443.827	11.45
444.188	11.46
444.548	11.48
444.909	11.54
445.269	11.54
445.63	11.56
445.99	11.57
446.351	11.62
446.711	11.64
447.072	11.67
447.432	11.7
447.792	11.73
448.153	11.78
448.513	11.83
448.873	11.85
449.233	11.88
449.593	11.87
449.953	11.9
450.313	11.92
450.673	11.92
451.033	11.94
451.393	11.95
451.753	11.97
452.113	12.28
452.472	12.28
452.832	12.29
453.192	12.29
453.551	12.31
453.911	12.32
454.271	12.32
454.63	12.36
454.989	12.37
455.349	12.41
455.708	12.42
456.068	12.28
456.427	12.29
456.786	12.32
457.145	12.35
457.505	12.38
457.864	12.42
458.223	12.47
458.582	12.51
458.941	12.57
459.3	12.59
459.659	12.62
460.018	12.64
460.376	12.66
460.735	12.68
461.094	12.7
461.453	12.73
461.811	12.75
462.17	12.75
462.529	12.76
462.887	12.76
463.246	12.78
463.604	12.8
463.963	12.83
464.321	12.74
464.679	12.75
465.038	12.76
465.396	12.77
465.754	12.79
466.112	12.81
466.47	12.84
466.828	12.87
467.186	12.88
467.544	12.91
467.902	12.94
468.26	13.11
468.618	13.15
468.976	13.17
469.334	13.21
469.692	13.23
470.049	13.24
470.407	13.25
470.765	13.26
471.122	13.28
471.48	13.31
471.837	13.34
472.195	13.37
472.552	13.42
472.909	13.48
473.267	13.51
473.624	13.56
473.981	13.58
474.338	13.6
474.696	13.64
475.053	13.65
475.41	13.67
475.767	13.71
476.124	13.72
476.481	13.73
476.838	13.75
477.194	13.78
477.551	13.82
477.908	13.86
478.265	13.9
478.621	13.93
478.978	13.97
479.335	13.99
479.691	14.01
480.048	14.04
480.404	14.04
480.761	14.06
481.117	14.09
481.473	14.09
481.83	14.11
482.186	14.12
482.542	14.14
482.898	14.17
483.255	14.21
483.611	14.24
483.967	14.28
484.323	14.33
484.679	14.37
485.035	14.39
485.39	14.42
485.746	14.44
486.102	14.48
486.458	14.49
486.814	14.51
487.169	14.51
487.525	14.52
487.88	14.54
488.236	14.56
488.591	14.57
488.947	14.57
489.302	14.58
489.658	14.58
490.013	14.59
490.368	14.59
490.723	14.6
491.079	14.61
491.434	14.63
491.789	14.64
492.144	14.65
492.499	14.66
492.854	14.66
493.209	14.69
493.564	14.71
493.919	14.71
494.273	14.73
494.628	14.73
494.983	14.71
495.338	14.71
495.692	14.7
496.047	14.67
496.401	14.66
496.756	14.66
497.11	14.64
497.465	14.62
497.819	14.62
498.173	14.61
498.528	14.63
498.882	14.64
499.236	14.67
499.59	14.69
499.944	14.74
500.298	14.77
500.652	14.79
501.006	14.82
501.36	14.83
501.714	14.83
502.068	14.84
502.422	14.84
502.776	14.84
503.129	14.83
503.483	14.81
503.837	14.8
504.19	14.78
504.544	14.77
504.897	14.74
505.251	14.71
505.604	14.68
505.958	14.66
506.311	14.62
506.664	14.59
507.017	14.54
507.371	14.51
507.724	14.46
508.077	14.42
508.43	14.37
508.783	14.34
509.136	14.32
509.489	14.31
509.842	14.27
510.195	14.25
510.547	14.23
510.9	14.21
511.253	14.19
511.606	14.16
511.958	14.11
512.311	14.08
512.663	14.02
513.016	13.98
513.368	13.95
513.721	13.92
514.073	13.89
514.425	13.87
514.778	13.84
515.13	13.82
515.482	13.78
515.834	13.77
516.186	13.75
516.538	13.74
516.89	13.72
517.242	13.71
517.594	13.7
517.946	13.68
518.298	13.66
518.65	13.65
519.001	13.61
519.353	13.58
519.705	13.53
520.056	13.5
520.408	13.45
520.759	13.41
521.111	13.37
521.462	13.33
521.814	13.31
522.165	13.28
522.516	13.22
522.868	13.18
523.219	13.15
523.57	13.12
523.921	13.1
524.272	13.07
524.623	13.03
524.974	12.97
525.325	12.9
525.676	12.82
526.027	12.78
526.378	12.75
526.728	12.71
527.079	12.67
527.43	12.65
527.78	12.61
528.131	12.55
528.481	12.51
528.832	12.49
529.182	12.47
529.533	12.46
529.883	12.43
530.233	12.41
530.584	12.37
530.934	12.35
531.284	12.3
531.634	12.24
531.984	12.21
532.334	12.18
532.684	12.14
533.034	12.11
533.384	12.07
533.734	12.04
534.084	12.01
534.434	11.97
534.783	11.93
535.133	11.88
535.483	11.85
535.832	11.82
536.182	11.76
536.531	11.73
536.881	11.67
537.23	11.61
537.58	11.54
537.929	11.47
538.278	12.43
538.628	12.37
538.977	12.32
539.326	12.27
539.675	12.2
540.024	12.16
540.373	12.11
540.722	12.07
541.071	12.03
541.42	12.02
541.769	11.98
542.117	10.94
542.466	10.88
542.815	10.84
543.163	10.8
543.512	10.78
543.861	10.78
544.209	10.73
544.558	10.69
544.906	10.65
545.254	10.61
545.603	10.59
545.951	10.57
546.299	10.58
546.647	10.57
546.996	10.55
547.344	10.51
547.692	10.46
548.04	10.45
548.388	10.43
548.736	10.4
549.083	10.35
549.431	10.31
549.779	10.24
550.127	10.16
550.475	10.09
550.822	10.06
551.17	10.01
551.517	9.98
551.865	9.95
552.212	9.91
552.56	9.86
552.907	9.82
553.254	9.77
553.602	9.72
553.949	9.71
554.296	9.68
554.643	9.63
554.99	9.59
555.337	9.51
555.684	9.43
556.031	9.36
556.378	9.32
556.725	9.29
557.072	9.27
557.419	9.23
557.765	9.16
558.112	9.12
558.459	9.08
558.805	9.06
559.152	9.07
559.498	9.04
559.845	9.04
560.191	8.99
560.538	8.95
560.884	8.9
561.23	8.86
561.576	8.83
561.923	8.73
562.269	8.69
562.615	8.64
562.961	8.57
563.307	8.56
563.653	8.54
563.999	8.51
564.344	8.46
564.69	8.44
565.036	8.42
565.382	8.41
565.727	8.42
566.073	8.38
566.419	8.35
566.764	8.3
567.11	8.25
567.455	8.19
567.8	8.14
568.146	8.12
568.491	8.08
568.836	8.03
569.181	8
569.527	7.96
569.872	7.92
570.217	7.88
570.562	7.87
570.907	7.84
571.252	7.82
571.597	7.8
571.941	7.77
572.286	7.74
572.631	7.73
572.976	7.72
573.32	7.7
573.665	7.67
574.009	7.65
574.354	7.63
574.698	7.62
575.043	7.6
575.387	7.58
575.731	7.57
576.076	7.55
576.42	7.55
576.764	7.52
577.108	7.5
577.452	7.46
577.796	7.46
578.14	7.41
578.484	7.4
578.828	7.39
579.172	7.38
579.516	7.32
579.86	7.31
580.203	7.28
580.547	7.26
580.891	7.25
581.234	7.21
581.578	7.19
581.921	7.18
582.264	7.16
582.608	7.15
582.951	7.15
583.294	7.14
583.638	7.14
583.981	7.14
584.324	7.14
584.667	7.13
585.01	7.12
585.353	7.08
585.696	7.08
586.039	7.09
586.382	7.09
586.725	7.06
587.067	7.06
587.41	7.05
587.753	7.05
588.095	7.06
588.438	7.05
588.781	7.05
589.123	7.02
589.465	7.02
589.808	7.01
590.15	7
590.492	6.95
590.835	6.93
591.177	6.89
591.519	6.85
591.861	6.82
592.203	6.8
592.545	6.78
592.887	6.77
593.229	6.76
593.571	6.73
593.913	6.69
594.254	6.68
594.596	6.68
594.938	6.64
595.279	6.63
595.621	6.6
595.963	6.6
596.304	6.59
596.645	6.6
596.987	6.6
597.328	6.56
597.669	6.55
598.011	6.58
598.352	6.59
598.693	6.59
599.034	6.58
599.375	6.58
599.716	6.57
600.057	6.57
600.398	6.57
600.739	6.57
601.08	6.56
601.42	6.57
601.761	6.57
602.102	6.55
602.442	6.55
602.783	6.54
603.123	6.48
603.464	6.46
603.804	6.45
604.145	6.44
604.485	6.43
604.825	6.42
605.166	6.38
605.506	6.34
605.846	6.32
606.186	6.32
606.526	6.31
606.866	6.32
607.206	6.32
607.546	6.3
607.886	6.25
608.225	6.23
608.565	6.21
608.905	6.2
609.245	6.14
609.584	6.13
609.924	6.12
610.263	6.13
610.603	6.15
610.942	6.14
611.281	6.14
611.621	6.12
611.96	6.09
612.299	6.09
612.638	6.1
612.978	6.09
613.317	6.09
613.656	6.06
613.995	6.05
614.334	6
614.672	6
615.011	6
615.35	6.01
615.689	6
616.027	5.98
616.366	5.98
616.705	5.99
617.043	6
617.382	5.95
617.72	5.88
618.059	5.88
618.397	5.86
618.735	5.83
619.073	5.81
619.412	5.8
619.75	5.79
620.088	5.76
620.426	5.75
620.764	5.73
621.102	5.71
621.44	5.7
621.778	5.66
622.115	5.64
622.453	5.64
622.791	5.64
623.129	5.65
623.466	5.65
623.804	5.62
624.141	5.61
624.479	5.61
624.816	5.62
625.153	5.62
625.491	5.62
625.828	5.62
626.165	5.63
626.502	5.62
626.84	5.61
627.177	5.62
627.514	5.58
627.851	5.54
628.188	5.54
628.524	5.49
628.861	5.47
629.198	5.47
629.535	5.45
629.871	5.41
630.208	5.38
630.545	5.38
630.881	5.38
631.218	5.38
631.554	5.37
631.89	5.39
632.227	5.39
632.563	5.35
632.899	5.32
633.235	5.33
633.572	5.32
633.908	5.32
634.244	5.32
634.58	5.26
634.916	5.27
635.251	5.29
635.587	5.26
635.923	5.24
636.259	5.25
636.595	5.2
636.93	5.19
637.266	5.19
637.601	5.15
637.937	5.1
638.272	5.16
638.608	5.1
638.943	5.07
639.278	5.06
639.613	5.04
639.949	4.98
640.284	4.98
640.619	4.95
640.954	4.91
641.289	4.94
641.624	4.95
641.959	4.87
642.294	4.83
642.628	4.81
642.963	4.8
643.298	4.78
643.632	4.86
643.967	4.92
644.302	4.94
644.636	4.95
644.971	4.92
645.305	4.89
645.639	4.92
645.974	4.92
646.308	4.92
646.642	4.95
646.976	4.95
647.31	4.89
647.644	4.81
647.978	4.74
648.312	4.67
648.646	4.67
648.98	4.72
649.314	4.71
649.647	4.71
649.981	4.68
650.315	4.63
650.648	4.55
650.982	4.55
651.315	4.62
651.649	4.61
651.982	4.66
652.316	4.61
652.649	4.55
652.982	4.51
653.315	4.53
653.648	4.55
653.982	4.56
654.315	4.55
654.648	4.49
654.981	4.43
655.313	4.47
655.646	4.48
655.979	4.53
656.312	4.5
656.644	4.45
656.977	4.42
657.31	4.37
657.642	4.33
657.975	4.33
658.307	4.34
658.64	4.33
658.972	4.33
659.304	4.26
659.636	4.2
659.969	4.18
660.301	4.26
660.633	4.27
660.965	4.32
661.297	4.32
661.629	4.35
661.961	4.35
662.292	4.36
662.624	4.32
662.956	4.36
663.288	4.41
663.619	4.43
663.951	4.37
664.282	4.33
664.614	4.31
664.945	4.28
665.276	4.25
665.608	4.25
665.939	4.22
666.27	4.17
666.601	4.09
666.933	4.06
667.264	4.07
667.595	4.04
667.926	4.04
668.256	4.04
668.587	4
668.918	4
669.249	4
669.58	3.95
669.91	3.95
670.241	3.99
670.571	4.02
670.902	4.06
671.232	4.03
671.563	3.98
671.893	3.91
672.223	3.96
672.554	3.95
672.884	4
673.214	4.01
673.544	4.12
673.874	4.09
674.204	4.03
674.534	3.92
674.864	3.91
675.194	3.91
675.524	3.94
675.853	3.92
676.183	3.89
676.513	3.79
676.842	3.84
677.172	3.74
677.501	3.73
677.831	3.73
678.16	3.75
678.489	3.82
678.819	3.85
679.148	3.82
679.477	3.78
679.806	3.79
680.135	3.81
680.464	3.72
680.793	3.71
681.122	3.74
681.451	3.66
681.78	3.7
682.108	3.65
682.437	3.64
682.766	3.62
683.094	3.69
683.423	3.68
683.751	3.62
684.08	3.63
684.408	3.6
684.737	3.58
685.065	3.57
685.393	3.53
685.721	3.55
686.049	3.51
686.377	3.5
686.705	3.46
687.033	3.49
