Data from groin2_Reflection__0__15-15-48-425.txt Node

Date: Thu Aug 04 15:15:48 AEST 2022
User: kathy
Spectrometer: JAZA2503
Trigger mode: 0
Integration Time (sec): 2.439700E-1
Scans to average: 10
Electric dark correction enabled: true
Nonlinearity correction enabled: true
Boxcar width: 5
XAxis mode: Wavelengths
Number of Pixels in Spectrum: 2048
>>>>>Begin Spectral Data<<<<<
189.467	321.72
189.852	209.61
190.237	261.71
190.622	267.57
191.007	228.25
191.392	138.03
191.777	97.09
192.162	73.97
192.546	127.27
192.931	81.46
193.316	167.37
193.701	479.01
194.086	177.01
194.47	223.8
194.855	-5576.08
195.24	-185.96
195.624	236.79
196.009	99.75
196.393	109.75
196.778	231.65
197.163	62.09
197.547	48.95
197.931	36.74
198.316	45.11
198.7	32.04
199.085	38.78
199.469	45.27
199.853	42.6
200.237	42.28
200.622	35.06
201.006	40.88
201.39	43.07
201.774	32.7
202.158	32.63
202.542	27.49
202.926	26.71
203.31	24.75
203.694	26.54
204.078	23.58
204.462	36.94
204.846	45.17
205.23	37.44
205.614	34.95
205.998	44.88
206.381	49.91
206.765	53.67
207.149	55.95
207.532	52.72
207.916	49.68
208.3	51.24
208.683	46.94
209.067	49.08
209.45	46.81
209.834	53.02
210.217	48.2
210.601	39.79
210.984	43.62
211.367	48.34
211.751	46.65
212.134	51.13
212.517	51.26
212.901	51.99
213.284	54.61
213.667	54.89
214.05	49.65
214.433	47.85
214.816	49.61
215.199	47.34
215.582	42
215.965	44.34
216.348	40.2
216.731	33.31
217.114	26.22
217.497	14.59
217.88	15.19
218.262	10.92
218.645	12.36
219.028	15.08
219.411	9.58
219.793	11.07
220.176	7.56
220.559	9.22
220.941	9.46
221.324	15.17
221.706	17.66
222.089	19.92
222.471	18.18
222.853	16.87
223.236	16.26
223.618	16.34
224	15.11
224.383	12.27
224.765	10.55
225.147	10.78
225.529	8.7
225.912	7.28
226.294	5.68
226.676	6
227.058	4.4
227.44	2.96
227.822	3.03
228.204	3.29
228.586	3.73
228.968	4.17
229.349	4.16
229.731	3.99
230.113	3.53
230.495	3.28
230.877	3.42
231.258	3.6
231.64	3.59
232.022	3.53
232.403	3.24
232.785	3.39
233.166	2.85
233.548	2.51
233.929	2.2
234.311	2.78
234.692	3.11
235.073	3.18
235.455	3.76
235.836	4.59
236.217	4.7
236.599	4.74
236.98	4.86
237.361	5.1
237.742	5.35
238.123	5.47
238.504	5.24
238.885	5.03
239.266	4.79
239.647	4.15
240.028	3.63
240.409	3.53
240.79	3.65
241.171	3.36
241.552	3.25
241.933	3.11
242.313	3.16
242.694	3.27
243.075	3.22
243.456	3.05
243.836	3.16
244.217	3.28
244.597	3.18
244.978	2.93
245.358	3.01
245.739	2.87
246.119	2.88
246.5	2.79
246.88	2.62
247.26	2.54
247.641	2.58
248.021	2.55
248.401	2.42
248.781	2.45
249.162	2.63
249.542	2.48
249.922	2.48
250.302	2.55
250.682	2.45
251.062	2.52
251.442	2.5
251.822	2.38
252.202	2.39
252.582	2.39
252.961	2.39
253.341	2.35
253.721	2.62
254.101	2.67
254.48	2.6
254.86	2.81
255.24	3.03
255.619	3.25
255.999	3.6
256.378	3.49
256.758	3.49
257.137	3.43
257.517	3.14
257.896	2.97
258.276	2.85
258.655	2.56
259.034	2.24
259.414	1.96
259.793	1.81
260.172	1.65
260.551	1.61
260.93	1.49
261.309	1.44
261.688	1.43
262.068	1.42
262.447	1.4
262.825	1.42
263.204	1.41
263.583	1.36
263.962	1.37
264.341	1.46
264.72	1.35
265.099	1.46
265.477	1.55
265.856	1.56
266.235	1.48
266.613	1.53
266.992	1.62
267.371	1.79
267.749	1.98
268.128	1.85
268.506	1.82
268.884	2.05
269.263	1.97
269.641	1.89
270.02	1.93
270.398	1.92
270.776	1.87
271.154	1.86
271.533	1.87
271.911	1.81
272.289	1.9
272.667	1.9
273.045	1.82
273.423	1.84
273.801	1.91
274.179	1.84
274.557	1.91
274.935	1.92
275.313	1.92
275.69	1.93
276.068	1.96
276.446	1.99
276.824	1.95
277.201	1.92
277.579	2.03
277.957	1.99
278.334	2.01
278.712	1.93
279.089	1.84
279.467	1.72
279.844	1.7
280.222	1.52
280.599	1.42
280.976	1.45
281.354	1.39
281.731	1.27
282.108	1.26
282.485	1.26
282.863	1.28
283.24	1.35
283.617	1.42
283.994	1.4
284.371	1.46
284.748	1.52
285.125	1.51
285.502	1.56
285.879	1.62
286.256	1.64
286.633	1.76
287.009	1.81
287.386	1.83
287.763	1.89
288.139	1.88
288.516	1.97
288.893	2.03
289.269	2.05
289.646	2.1
290.022	2.14
290.399	2.18
290.775	2.18
291.152	2.24
291.528	2.27
291.904	2.23
292.281	2.31
292.657	2.33
293.033	2.36
293.41	2.44
293.786	2.47
294.162	2.49
294.538	2.51
294.914	2.53
295.29	2.57
295.666	2.65
296.042	2.75
296.418	2.82
296.794	2.9
297.17	2.97
297.546	3.05
297.921	3.14
298.297	3.26
298.673	3.35
299.048	3.45
299.424	3.54
299.8	3.63
300.175	3.72
300.551	3.8
300.926	3.88
301.302	3.96
301.677	4.02
302.053	4.12
302.428	4.17
302.803	4.25
303.179	4.34
303.554	4.4
303.929	4.46
304.304	4.55
304.68	4.62
305.055	4.72
305.43	4.79
305.805	4.89
306.18	4.94
306.555	5.02
306.93	5.09
307.305	5.12
307.679	5.14
308.054	5.17
308.429	5.17
308.804	5.22
309.179	5.23
309.553	5.23
309.928	5.23
310.303	5.26
310.677	5.29
311.052	5.3
311.426	5.33
311.801	5.38
312.175	5.42
312.55	5.49
312.924	5.55
313.298	5.59
313.673	5.63
314.047	5.64
314.421	5.69
314.795	5.7
315.17	5.74
315.544	5.8
315.918	5.85
316.292	5.93
316.666	5.97
317.04	6.04
317.414	6.14
317.788	6.28
318.162	6.46
318.535	6.61
318.909	6.78
319.283	6.97
319.657	7.11
320.03	7.3
320.404	7.48
320.778	7.92
321.151	8.37
321.525	8.92
321.898	9.6
322.272	10.37
322.645	11.26
323.019	12.19
323.392	13.32
323.765	14.64
324.139	15.99
324.512	17.56
324.885	19.13
325.258	20.75
325.632	22.2
326.005	23.51
326.378	24.68
326.751	25.72
327.124	26.56
327.497	27.25
327.87	27.93
328.243	28.48
328.616	28.98
328.988	29.31
329.361	29.52
329.734	29.68
330.107	29.7
330.479	29.69
330.852	29.61
331.225	29.6
331.597	29.49
331.97	29.37
332.342	29.19
332.715	29.03
333.087	28.79
333.46	28.62
333.832	28.51
334.204	28.42
334.577	28.38
334.949	28.35
335.321	28.33
335.693	28.15
336.065	28.02
336.438	27.84
336.81	27.62
337.182	27.45
337.554	27.25
337.926	27.11
338.298	26.92
338.669	26.76
339.041	26.65
339.413	26.59
339.785	26.57
340.157	26.49
340.528	26.53
340.9	26.55
341.272	26.57
341.643	26.56
342.015	26.65
342.386	26.81
342.758	27.06
343.129	27.29
343.501	27.51
343.872	27.66
344.243	27.74
344.615	27.8
344.986	27.77
345.357	27.85
345.728	27.91
346.099	27.98
346.471	28.07
346.842	28.15
347.213	28.19
347.584	28.27
347.955	28.33
348.326	28.38
348.697	28.4
349.067	28.44
349.438	28.56
349.809	28.72
350.18	28.95
350.55	29.08
350.921	29.26
351.292	29.43
351.662	29.59
352.033	29.7
352.403	29.8
352.774	29.92
353.144	30.03
353.515	30.1
353.885	30.17
354.255	30.23
354.626	30.25
354.996	30.29
355.366	30.32
355.736	30.36
356.107	30.41
356.477	30.47
356.847	30.55
357.217	30.59
357.587	30.69
357.957	30.79
358.327	30.9
358.697	31.01
359.066	31.08
359.436	31.19
359.806	31.27
360.176	31.37
360.546	31.45
360.915	31.54
361.285	31.63
361.654	31.66
362.024	31.67
362.393	31.68
362.763	31.72
363.132	31.73
363.502	31.73
363.871	31.76
364.24	31.82
364.61	31.87
364.979	31.9
365.348	31.91
365.717	31.98
366.087	32.04
366.456	32.1
366.825	32.17
367.194	32.21
367.563	32.27
367.932	32.33
368.301	32.35
368.669	32.37
369.038	32.38
369.407	32.41
369.776	32.41
370.145	32.42
370.513	32.45
370.882	32.43
371.25	32.49
371.619	32.46
371.988	32.42
372.356	32.43
372.724	32.42
373.093	32.41
373.461	32.4
373.83	32.4
374.198	32.4
374.566	32.36
374.934	32.34
375.303	32.32
375.671	32.34
376.039	32.38
376.407	32.38
376.775	32.39
377.143	32.41
377.511	32.43
377.879	32.44
378.247	32.44
378.615	32.5
378.982	32.5
379.35	32.48
379.718	32.48
380.086	32.49
380.453	32.47
380.821	32.49
381.188	32.47
381.556	32.48
381.923	32.47
382.291	32.48
382.658	32.46
383.026	32.47
383.393	32.49
383.76	32.5
384.128	32.55
384.495	32.57
384.862	32.54
385.229	32.57
385.596	32.56
385.963	32.56
386.33	32.55
386.697	32.55
387.064	32.52
387.431	32.51
387.798	32.49
388.165	32.48
388.532	32.44
388.899	32.46
389.265	32.46
389.632	32.45
389.999	32.47
390.365	32.47
390.732	32.46
391.098	32.47
391.465	32.48
391.831	32.49
392.198	32.45
392.564	32.45
392.93	32.48
393.297	32.49
393.663	32.53
394.029	32.55
394.395	32.58
394.762	32.62
395.128	32.66
395.494	32.69
395.86	32.77
396.226	32.83
396.592	32.88
396.958	32.92
397.323	32.96
397.689	33.01
398.055	33.08
398.421	33.15
398.787	33.21
399.152	33.24
399.518	33.3
399.883	33.32
400.249	33.37
400.615	33.42
400.98	33.48
401.345	33.51
401.711	33.52
402.076	33.52
402.442	33.54
402.807	33.55
403.172	33.62
403.537	33.58
403.902	33.59
404.268	33.61
404.633	33.64
404.998	33.64
405.363	33.68
405.728	33.74
406.093	33.77
406.457	33.81
406.822	33.85
407.187	33.9
407.552	34.03
407.917	34.1
408.281	34.15
408.646	34.19
409.011	34.23
409.375	34.26
409.74	34.28
410.104	34.3
410.469	34.32
410.833	34.33
411.197	34.33
411.562	34.34
411.926	34.35
412.29	34.39
412.655	34.4
413.019	34.45
413.383	34.48
413.747	34.53
414.111	34.61
414.475	34.7
414.839	34.8
415.203	34.9
415.567	34.96
415.931	35.04
416.295	35.08
416.658	35.13
417.022	35.2
417.386	35.27
417.749	35.28
418.113	35.3
418.477	35.3
418.84	35.29
419.204	35.31
419.567	35.35
419.931	35.39
420.294	35.47
420.657	35.54
421.021	35.57
421.384	35.59
421.747	35.69
422.11	35.75
422.473	35.8
422.836	35.84
423.199	35.88
423.562	35.93
423.925	35.95
424.288	35.92
424.651	35.93
425.014	35.98
425.377	36.01
425.74	36.03
426.102	36.09
426.465	36.17
426.828	36.23
427.19	36.29
427.553	36.34
427.916	36.37
428.278	36.39
428.641	36.41
429.003	36.4
429.365	36.41
429.728	36.43
430.09	36.4
430.452	36.37
430.814	36.36
431.177	36.34
431.539	36.33
431.901	36.36
432.263	36.41
432.625	36.45
432.987	36.53
433.349	36.63
433.711	36.71
434.072	36.82
434.434	36.92
434.796	37.05
435.158	37.17
435.519	37.25
435.881	37.36
436.243	37.44
436.604	37.52
436.966	37.56
437.327	37.58
437.689	37.58
438.05	37.56
438.411	37.55
438.773	37.55
439.134	37.57
439.495	37.63
439.856	37.65
440.218	37.67
440.579	37.7
440.94	37.74
441.301	37.82
441.662	37.89
442.023	37.95
442.384	38.05
442.745	38.1
443.105	38.16
443.466	38.18
443.827	38.21
444.188	38.3
444.548	38.35
444.909	38.43
445.269	38.44
445.63	38.45
445.99	38.53
446.351	38.56
446.711	38.64
447.072	38.72
447.432	38.78
447.792	38.83
448.153	38.86
448.513	38.91
448.873	38.93
449.233	38.99
449.593	39.04
449.953	39.07
450.313	39.13
450.673	39.18
451.033	39.22
451.393	39.25
451.753	39.33
452.113	39.73
452.472	39.74
452.832	39.73
453.192	39.71
453.551	39.7
453.911	39.65
454.271	39.59
454.63	39.57
454.989	39.56
455.349	39.56
455.708	39.56
456.068	39.37
456.427	39.42
456.786	39.5
457.145	39.59
457.505	39.72
457.864	39.89
458.223	40.07
458.582	40.25
458.941	40.39
459.3	40.54
459.659	40.65
460.018	40.78
460.376	40.88
460.735	40.96
461.094	41.02
461.453	41.08
461.811	41.1
462.17	41.14
462.529	41.16
462.887	41.19
463.246	41.22
463.604	41.27
463.963	41.32
464.321	41.26
464.679	41.32
465.038	41.39
465.396	41.46
465.754	41.56
466.112	41.66
466.47	41.77
466.828	41.9
467.186	42.03
467.544	42.12
467.902	42.22
468.26	42.43
468.618	42.48
468.976	42.55
469.334	42.56
469.692	42.55
470.049	42.54
470.407	42.51
470.765	42.51
471.122	42.54
471.48	42.62
471.837	42.7
472.195	42.8
472.552	42.92
472.909	42.99
473.267	43.09
473.624	43.21
473.981	43.26
474.338	43.37
474.696	43.42
475.053	43.48
475.41	43.53
475.767	43.58
476.124	43.61
476.481	43.64
476.838	43.73
477.194	43.77
477.551	43.8
477.908	43.88
478.265	43.94
478.621	44.06
478.978	44.12
479.335	44.19
479.691	44.26
480.048	44.31
480.404	44.39
480.761	44.42
481.117	44.47
481.473	44.51
481.83	44.57
482.186	44.6
482.542	44.6
482.898	44.64
483.255	44.68
483.611	44.71
483.967	44.77
484.323	44.79
484.679	44.83
485.035	44.88
485.39	44.95
485.746	44.98
486.102	45.04
486.458	45.11
486.814	45.16
487.169	45.28
487.525	45.34
487.88	45.4
488.236	45.45
488.591	45.48
488.947	45.51
489.302	45.55
489.658	45.59
490.013	45.57
490.368	45.56
490.723	45.55
491.079	45.48
491.434	45.47
491.789	45.48
492.144	45.48
492.499	45.54
492.854	45.61
493.209	45.65
493.564	45.73
493.919	45.81
494.273	45.88
494.628	45.94
494.983	46
495.338	46.06
495.692	46.12
496.047	46.14
496.401	46.11
496.756	46.05
497.11	46.02
497.465	45.99
497.819	45.95
498.173	45.93
498.528	45.95
498.882	45.95
499.236	45.98
499.59	46.01
499.944	46.06
500.298	46.12
500.652	46.17
501.006	46.19
501.36	46.2
501.714	46.24
502.068	46.27
502.422	46.29
502.776	46.37
503.129	46.44
503.483	46.51
503.837	46.62
504.19	46.71
504.544	46.81
504.897	46.86
505.251	46.89
505.604	46.93
505.958	46.94
506.311	46.95
506.664	46.93
507.017	46.85
507.371	46.8
507.724	46.68
508.077	46.6
508.43	46.55
508.783	46.56
509.136	46.61
509.489	46.61
509.842	46.67
510.195	46.68
510.547	46.68
510.9	46.7
511.253	46.65
511.606	46.67
511.958	46.62
512.311	46.57
512.663	46.5
513.016	46.37
513.368	46.27
513.721	46.19
514.073	46.11
514.425	46.06
514.778	46
515.13	46
515.482	46.02
515.834	46.05
516.186	46.07
516.538	46.14
516.89	46.27
517.242	46.39
517.594	46.45
517.946	46.54
518.298	46.62
518.65	46.69
519.001	46.73
519.353	46.71
519.705	46.69
520.056	46.64
520.408	46.57
520.759	46.48
521.111	46.42
521.462	46.38
521.814	46.34
522.165	46.33
522.516	46.31
522.868	46.29
523.219	46.2
523.57	46.14
523.921	46.1
524.272	46.09
524.623	46.03
524.974	45.97
525.325	45.92
525.676	45.82
526.027	45.74
526.378	45.68
526.728	45.59
527.079	45.56
527.43	45.53
527.78	45.52
528.131	45.49
528.481	45.46
528.832	45.44
529.182	45.41
529.533	45.38
529.883	45.32
530.233	45.31
530.584	45.31
530.934	45.29
531.284	45.24
531.634	45.17
531.984	45.11
532.334	45.05
532.684	44.97
533.034	44.92
533.384	44.94
533.734	44.93
534.084	44.86
534.434	44.8
534.783	44.72
535.133	44.66
535.483	44.62
535.832	44.58
536.182	44.52
536.531	44.49
536.881	44.45
537.23	44.36
537.58	44.29
537.929	44.25
538.278	45.7
538.628	45.61
538.977	45.62
539.326	45.59
539.675	45.5
540.024	45.43
540.373	45.4
540.722	45.33
541.071	45.32
541.42	45.29
541.769	45.24
542.117	43.7
542.466	43.69
542.815	43.58
543.163	43.51
543.512	43.47
543.861	43.42
544.209	43.34
544.558	43.28
544.906	43.18
545.254	43.08
545.603	43.01
545.951	42.93
546.299	42.9
546.647	42.91
546.996	42.87
547.344	42.79
547.692	42.8
548.04	42.78
548.388	42.74
548.736	42.72
549.083	42.7
549.431	42.66
549.779	42.66
550.127	42.56
550.475	42.46
550.822	42.38
551.17	42.34
551.517	42.28
551.865	42.22
552.212	42.14
552.56	42.05
552.907	42.05
553.254	41.97
553.602	41.86
553.949	41.83
554.296	41.73
554.643	41.62
554.99	41.52
555.337	41.4
555.684	41.29
556.031	41.18
556.378	41.06
556.725	40.88
557.072	40.81
557.419	40.73
557.765	40.57
558.112	40.5
558.459	40.47
558.805	40.39
559.152	40.32
559.498	40.24
559.845	40.17
560.191	40.13
560.538	40.08
560.884	39.96
561.23	39.87
561.576	39.84
561.923	39.72
562.269	39.61
562.615	39.56
562.961	39.43
563.307	39.35
563.653	39.33
563.999	39.25
564.344	39.14
564.69	39.06
565.036	39
565.382	38.9
565.727	38.84
566.073	38.79
566.419	38.67
566.764	38.6
567.11	38.48
567.455	38.33
567.8	38.25
568.146	38.2
568.491	38.09
568.836	37.97
569.181	37.86
569.527	37.76
569.872	37.65
570.217	37.52
570.562	37.43
570.907	37.36
571.252	37.29
571.597	37.18
571.941	37.09
572.286	37.05
572.631	37.01
572.976	36.97
573.32	36.96
573.665	36.95
574.009	36.94
574.354	36.92
574.698	36.92
575.043	36.88
575.387	36.85
575.731	36.81
576.076	36.79
576.42	36.72
576.764	36.64
577.108	36.62
577.452	36.53
577.796	36.48
578.14	36.41
578.484	36.32
578.828	36.21
579.172	36.2
579.516	36.11
579.86	36.06
580.203	35.96
580.547	35.93
580.891	35.82
581.234	35.74
581.578	35.65
581.921	35.59
582.264	35.49
582.608	35.4
582.951	35.35
583.294	35.3
583.638	35.28
583.981	35.24
584.324	35.21
584.667	35.15
585.01	35.13
585.353	35.11
585.696	35.06
586.039	35.04
586.382	34.95
586.725	34.96
587.067	34.92
587.41	34.89
587.753	34.86
588.095	34.79
588.438	34.79
588.781	34.78
589.123	34.73
589.465	34.72
589.808	34.71
590.15	34.68
590.492	34.67
590.835	34.66
591.177	34.62
591.519	34.52
591.861	34.46
592.203	34.42
592.545	34.33
592.887	34.31
593.229	34.3
593.571	34.28
593.913	34.22
594.254	34.15
594.596	34.13
594.938	34.06
595.279	34.03
595.621	33.99
595.963	33.84
596.304	33.82
596.645	33.77
596.987	33.73
597.328	33.68
597.669	33.61
598.011	33.52
598.352	33.47
598.693	33.47
599.034	33.46
599.375	33.41
599.716	33.39
600.057	33.37
600.398	33.36
600.739	33.3
601.08	33.27
601.42	33.27
601.761	33.21
602.102	33.2
602.442	33.15
602.783	33.13
603.123	33.05
603.464	33.05
603.804	32.99
604.145	33.01
604.485	32.91
604.825	32.87
605.166	32.83
605.506	32.79
605.846	32.76
606.186	32.78
606.526	32.62
606.866	32.6
607.206	32.53
607.546	32.47
607.886	32.37
608.225	32.26
608.565	32.22
608.905	32.16
609.245	32.12
609.584	32.1
609.924	32
610.263	31.96
610.603	31.95
610.942	31.85
611.281	31.84
611.621	31.78
611.96	31.71
612.299	31.68
612.638	31.62
612.978	31.57
613.317	31.52
613.656	31.51
613.995	31.41
614.334	31.42
614.672	31.3
615.011	31.23
615.35	31.19
615.689	31.15
616.027	31.11
616.366	31.03
616.705	31
617.043	30.93
617.382	30.88
617.72	30.77
618.059	30.71
618.397	30.68
618.735	30.6
619.073	30.53
619.412	30.5
619.75	30.45
620.088	30.41
620.426	30.41
620.764	30.3
621.102	30.21
621.44	30.17
621.778	30.12
622.115	30.05
622.453	30.02
622.791	29.99
623.129	29.88
623.466	29.85
623.804	29.83
624.141	29.73
624.479	29.68
624.816	29.62
625.153	29.58
625.491	29.56
625.828	29.53
626.165	29.5
626.502	29.44
626.84	29.42
627.177	29.27
627.514	29.17
627.851	29.12
628.188	29
628.524	28.89
628.861	28.85
629.198	28.82
629.535	28.74
629.871	28.68
630.208	28.64
630.545	28.56
630.881	28.46
631.218	28.39
631.554	28.34
631.89	28.31
632.227	28.24
632.563	28.2
632.899	28.08
633.235	27.95
633.572	27.88
633.908	27.73
634.244	27.63
634.58	27.64
634.916	27.57
635.251	27.46
635.587	27.37
635.923	27.31
636.259	27.24
636.595	27.16
636.93	27.15
637.266	27.02
637.601	26.97
637.937	26.85
638.272	26.77
638.608	26.75
638.943	26.67
639.278	26.65
639.613	26.51
639.949	26.42
640.284	26.31
640.619	26.21
640.954	26.2
641.289	26.14
641.624	26.14
641.959	26.04
642.294	25.91
642.628	25.81
642.963	25.67
643.298	25.66
643.632	25.67
643.967	25.61
644.302	25.55
644.636	25.47
644.971	25.35
645.305	25.27
645.639	25.2
645.974	25.14
646.308	25.09
646.642	24.99
646.976	24.9
647.31	24.75
647.644	24.69
647.978	24.6
648.312	24.51
648.646	24.5
648.98	24.43
649.314	24.35
649.647	24.26
649.981	24.18
650.315	24.09
650.648	24.05
650.982	24
651.315	23.96
651.649	23.94
651.982	23.88
652.316	23.82
652.649	23.78
652.982	23.67
653.315	23.59
653.648	23.55
653.982	23.57
654.315	23.53
654.648	23.44
654.981	23.4
655.313	23.36
655.646	23.3
655.979	23.18
656.312	23.13
656.644	23.13
656.977	23.09
657.31	22.94
657.642	22.83
657.975	22.7
658.307	22.66
658.64	22.55
658.972	22.42
659.304	22.37
659.636	22.3
659.969	22.15
660.301	22
660.633	21.94
660.965	21.94
661.297	22.01
661.629	21.98
661.961	21.87
662.292	21.83
662.624	21.8
662.956	21.72
663.288	21.75
663.619	21.8
663.951	21.88
664.282	21.86
664.614	21.86
664.945	21.73
665.276	21.69
665.608	21.66
665.939	21.6
666.27	21.51
666.601	21.5
666.933	21.41
667.264	21.32
667.595	21.2
667.926	21.01
668.256	20.9
668.587	20.85
668.918	20.82
669.249	20.82
669.58	20.82
669.91	20.8
670.241	20.7
670.571	20.66
670.902	20.52
671.232	20.57
671.563	20.68
671.893	20.75
672.223	20.66
