Data from thigh2_Reflection__2__15-32-02-373.txt Node

Date: Thu Aug 04 15:32:02 AEST 2022
User: kathy
Spectrometer: JAZA2503
Trigger mode: 0
Integration Time (sec): 2.439700E-1
Scans to average: 10
Electric dark correction enabled: true
Nonlinearity correction enabled: true
Boxcar width: 5
XAxis mode: Wavelengths
Number of Pixels in Spectrum: 2048
>>>>>Begin Spectral Data<<<<<
189.467	128.72
189.852	9.74
190.237	24.25
190.622	-19.71
191.007	-44.43
191.392	27.77
191.777	47.92
192.162	53.94
192.546	155.64
192.931	225.13
193.316	60.65
193.701	304.81
194.086	30.7
194.47	79.74
194.855	191.71
195.24	86.64
195.624	57.06
196.009	73.9
196.393	42.64
196.778	40.34
197.163	12.52
197.547	18.22
197.931	-19.57
198.316	-18.33
198.7	-19.22
199.085	8.72
199.469	15.8
199.853	18.07
200.237	18.38
200.622	20.43
201.006	25.12
201.39	29.85
201.774	23.76
202.158	27.07
202.542	30.81
202.926	32.11
203.31	24.76
203.694	23.28
204.078	20.12
204.462	21.46
204.846	20.22
205.23	20.9
205.614	17.22
205.998	20.46
206.381	24.17
206.765	27.21
207.149	20.66
207.532	21.06
207.916	17.65
208.3	16.17
208.683	15.2
209.067	18.64
209.45	11.16
209.834	18.04
210.217	14.67
210.601	2.4
210.984	6.38
211.367	11.46
211.751	11.59
212.134	12.88
212.517	18.55
212.901	19.26
213.284	20.24
213.667	25.9
214.05	22.86
214.433	23.75
214.816	31.57
215.199	29.76
215.582	29.3
215.965	24.53
216.348	25.91
216.731	20.17
217.114	9.62
217.497	2.75
217.88	-2.23
218.262	-8.09
218.645	-8.76
219.028	-11.87
219.411	-18.83
219.793	-13.28
220.176	-11.51
220.559	-10.92
220.941	-8.64
221.324	-1.64
221.706	3.06
222.089	7.83
222.471	10.29
222.853	10.73
223.236	8.46
223.618	10.26
224	7.78
224.383	9.1
224.765	6.59
225.147	5.95
225.529	6.1
225.912	4.13
226.294	1.31
226.676	-0.93
227.058	-1.7
227.44	-0.52
227.822	-0.52
228.204	0.39
228.586	-0.08
228.968	0.55
229.349	0.77
229.731	0.61
230.113	0.34
230.495	0.46
230.877	1.1
231.258	1.57
231.64	1.6
232.022	1.06
232.403	0.63
232.785	0.67
233.166	0.29
233.548	0.12
233.929	0.01
234.311	0.82
234.692	1.29
235.073	1.62
235.455	1.67
235.836	2.7
236.217	3.36
236.599	3.64
236.98	4.04
237.361	4.27
237.742	4.19
238.123	4.18
238.504	3.96
238.885	3.7
239.266	3.31
239.647	2.9
240.028	1.93
240.409	1.85
240.79	1.91
241.171	1.59
241.552	1.45
241.933	1.47
242.313	1.69
242.694	1.72
243.075	1.73
243.456	1.62
243.836	1.73
244.217	2.08
244.597	2.16
244.978	2.07
245.358	2.23
245.739	2.27
246.119	2.32
246.5	2.25
246.88	2.16
247.26	2.09
247.641	2.07
248.021	2.1
248.401	1.94
248.781	1.91
249.162	2.05
249.542	1.93
249.922	1.88
250.302	1.94
250.682	1.81
251.062	1.8
251.442	1.77
251.822	1.92
252.202	1.86
252.582	1.88
252.961	1.95
253.341	1.77
253.721	1.96
254.101	1.96
254.48	2.05
254.86	2.11
255.24	2.35
255.619	2.47
255.999	2.51
256.378	2.51
256.758	2.48
257.137	2.28
257.517	2.16
257.896	2.04
258.276	2.03
258.655	1.61
259.034	1.46
259.414	1.21
259.793	1.09
260.172	0.92
260.551	0.81
260.93	0.64
261.309	0.59
261.688	0.55
262.068	0.53
262.447	0.48
262.825	0.53
263.204	0.48
263.583	0.48
263.962	0.51
264.341	0.59
264.72	0.6
265.099	0.79
265.477	0.98
265.856	0.96
266.235	0.93
266.613	0.96
266.992	1.02
267.371	1.07
267.749	1.21
268.128	1.15
268.506	1.15
268.884	1.3
269.263	1.27
269.641	1.1
270.02	1.07
270.398	1.01
270.776	1.03
271.154	1.07
271.533	1.17
271.911	1.07
272.289	1.08
272.667	1.07
273.045	1.01
273.423	0.97
273.801	1.01
274.179	1
274.557	1.12
274.935	1.04
275.313	1.05
275.69	0.97
276.068	1
276.446	0.99
276.824	0.96
277.201	0.97
277.579	1.08
277.957	1.08
278.334	1.16
278.712	1.09
279.089	1.11
279.467	1.05
279.844	1.05
280.222	0.95
280.599	0.94
280.976	0.96
281.354	0.95
281.731	0.89
282.108	0.95
282.485	0.9
282.863	0.91
283.24	0.96
283.617	0.97
283.994	0.96
284.371	0.99
284.748	1.06
285.125	1.07
285.502	1.03
285.879	1.04
286.256	1.01
286.633	1.08
287.009	1.12
287.386	1.15
287.763	1.17
288.139	1.16
288.516	1.24
288.893	1.29
289.269	1.33
289.646	1.38
290.022	1.42
290.399	1.46
290.775	1.43
291.152	1.46
291.528	1.48
291.904	1.51
292.281	1.58
292.657	1.6
293.033	1.6
293.41	1.65
293.786	1.69
294.162	1.74
294.538	1.76
294.914	1.82
295.29	1.86
295.666	1.9
296.042	1.93
296.418	1.98
296.794	2.01
297.17	2.07
297.546	2.09
297.921	2.14
298.297	2.21
298.673	2.25
299.048	2.29
299.424	2.34
299.8	2.37
300.175	2.44
300.551	2.49
300.926	2.55
301.302	2.56
301.677	2.58
302.053	2.6
302.428	2.63
302.803	2.67
303.179	2.74
303.554	2.77
303.929	2.81
304.304	2.87
304.68	2.9
305.055	2.95
305.43	2.97
305.805	3.05
306.18	3.09
306.555	3.13
306.93	3.2
307.305	3.22
307.679	3.25
308.054	3.28
308.429	3.28
308.804	3.3
309.179	3.34
309.553	3.36
309.928	3.38
310.303	3.43
310.677	3.43
311.052	3.43
311.426	3.44
311.801	3.5
312.175	3.48
312.55	3.56
312.924	3.61
313.298	3.63
313.673	3.65
314.047	3.67
314.421	3.71
314.795	3.78
315.17	3.81
315.544	3.87
315.918	3.9
316.292	3.99
316.666	4.02
317.04	4.08
317.414	4.14
317.788	4.26
318.162	4.38
318.535	4.48
318.909	4.54
319.283	4.69
319.657	4.76
320.03	4.89
320.404	4.99
320.778	5.19
321.151	5.36
321.525	5.55
321.898	5.72
322.272	5.88
322.645	6.09
323.019	6.28
323.392	6.5
323.765	6.82
324.139	7.15
324.512	7.54
324.885	7.93
325.258	8.31
325.632	8.62
326.005	8.91
326.378	9.17
326.751	9.26
327.124	9.36
327.497	9.34
327.87	9.41
328.243	9.4
328.616	9.49
328.988	9.53
329.361	9.6
329.734	9.61
330.107	9.56
330.479	9.49
330.852	9.35
331.225	9.29
331.597	9.2
331.97	9.08
332.342	8.98
332.715	8.85
333.087	8.75
333.46	8.64
333.832	8.49
334.204	8.5
334.577	8.47
334.949	8.48
335.321	8.4
335.693	8.4
336.065	8.34
336.438	8.2
336.81	8.13
337.182	7.99
337.554	7.88
337.926	7.74
338.298	7.58
338.669	7.45
339.041	7.3
339.413	7.17
339.785	7.09
340.157	6.95
340.528	6.91
340.9	6.82
341.272	6.73
341.643	6.67
342.015	6.64
342.386	6.65
342.758	6.72
343.129	6.85
343.501	6.89
343.872	6.91
344.243	6.95
344.615	6.89
344.986	6.76
345.357	6.73
345.728	6.71
346.099	6.71
346.471	6.69
346.842	6.67
347.213	6.62
347.584	6.62
347.955	6.56
348.326	6.47
348.697	6.41
349.067	6.38
349.438	6.34
349.809	6.35
350.18	6.42
350.55	6.4
350.921	6.4
351.292	6.44
351.662	6.48
352.033	6.49
352.403	6.48
352.774	6.45
353.144	6.4
353.515	6.4
353.885	6.37
354.255	6.33
354.626	6.32
354.996	6.29
355.366	6.25
355.736	6.2
356.107	6.15
356.477	6.13
356.847	6.14
357.217	6.16
357.587	6.14
357.957	6.15
358.327	6.14
358.697	6.13
359.066	6.15
359.436	6.16
359.806	6.17
360.176	6.18
360.546	6.17
360.915	6.19
361.285	6.18
361.654	6.17
362.024	6.15
362.393	6.14
362.763	6.15
363.132	6.13
363.502	6.12
363.871	6.13
364.24	6.14
364.61	6.15
364.979	6.13
365.348	6.13
365.717	6.13
366.087	6.15
366.456	6.17
366.825	6.18
367.194	6.19
367.563	6.19
367.932	6.19
368.301	6.21
368.669	6.21
369.038	6.23
369.407	6.23
369.776	6.22
370.145	6.21
370.513	6.22
370.882	6.2
371.25	6.2
371.619	6.19
371.988	6.17
372.356	6.14
372.724	6.14
373.093	6.11
373.461	6.1
373.83	6.11
374.198	6.1
374.566	6.09
374.934	6.07
375.303	6.08
375.671	6.07
376.039	6.07
376.407	6.1
376.775	6.07
377.143	6.08
377.511	6.09
377.879	6.09
378.247	6.11
378.615	6.11
378.982	6.12
379.35	6.11
379.718	6.12
380.086	6.13
380.453	6.15
380.821	6.2
381.188	6.2
381.556	6.2
381.923	6.22
382.291	6.23
382.658	6.24
383.026	6.26
383.393	6.29
383.76	6.33
384.128	6.34
384.495	6.31
384.862	6.28
385.229	6.29
385.596	6.26
385.963	6.25
386.33	6.26
386.697	6.25
387.064	6.22
387.431	6.2
387.798	6.16
388.165	6.14
388.532	6.15
388.899	6.14
389.265	6.14
389.632	6.16
389.999	6.16
390.365	6.15
390.732	6.16
391.098	6.16
391.465	6.17
391.831	6.17
392.198	6.16
392.564	6.14
392.93	6.14
393.297	6.14
393.663	6.14
394.029	6.15
394.395	6.15
394.762	6.15
395.128	6.16
395.494	6.18
395.86	6.21
396.226	6.24
396.592	6.26
396.958	6.27
397.323	6.28
397.689	6.31
398.055	6.33
398.421	6.34
398.787	6.36
399.152	6.36
399.518	6.36
399.883	6.35
400.249	6.36
400.615	6.36
400.98	6.37
401.345	6.37
401.711	6.36
402.076	6.36
402.442	6.37
402.807	6.35
403.172	6.37
403.537	6.36
403.902	6.37
404.268	6.35
404.633	6.37
404.998	6.37
405.363	6.37
405.728	6.39
406.093	6.39
406.457	6.39
406.822	6.4
407.187	6.41
407.552	6.43
407.917	6.43
408.281	6.44
408.646	6.45
409.011	6.44
409.375	6.45
409.74	6.43
410.104	6.44
410.469	6.43
410.833	6.43
411.197	6.41
411.562	6.41
411.926	6.42
412.29	6.42
412.655	6.42
413.019	6.42
413.383	6.43
413.747	6.44
414.111	6.43
414.475	6.43
414.839	6.44
415.203	6.46
415.567	6.46
415.931	6.47
416.295	6.48
416.658	6.47
417.022	6.47
417.386	6.48
417.749	6.48
418.113	6.49
418.477	6.5
418.84	6.5
419.204	6.5
419.567	6.49
419.931	6.48
420.294	6.46
420.657	6.48
421.021	6.49
421.384	6.48
421.747	6.49
422.11	6.48
422.473	6.48
422.836	6.49
423.199	6.49
423.562	6.51
423.925	6.52
424.288	6.53
424.651	6.54
425.014	6.56
425.377	6.56
425.74	6.58
426.102	6.6
426.465	6.64
426.828	6.64
427.19	6.65
427.553	6.64
427.916	6.64
428.278	6.65
428.641	6.65
429.003	6.65
429.365	6.64
429.728	6.64
430.09	6.63
430.452	6.57
430.814	6.55
431.177	6.54
431.539	6.53
431.901	6.54
432.263	6.55
432.625	6.53
432.987	6.52
433.349	6.53
433.711	6.53
434.072	6.56
434.434	6.59
434.796	6.62
435.158	6.65
435.519	6.68
435.881	6.67
436.243	6.67
436.604	6.67
436.966	6.68
437.327	6.7
437.689	6.68
438.05	6.64
438.411	6.64
438.773	6.64
439.134	6.63
439.495	6.62
439.856	6.64
440.218	6.64
440.579	6.67
440.94	6.66
441.301	6.67
441.662	6.68
442.023	6.7
442.384	6.71
442.745	6.71
443.105	6.7
443.466	6.71
443.827	6.7
444.188	6.71
444.548	6.7
444.909	6.73
445.269	6.72
445.63	6.7
445.99	6.7
446.351	6.71
446.711	6.71
447.072	6.73
447.432	6.72
447.792	6.7
448.153	6.7
448.513	6.7
448.873	6.69
449.233	6.67
449.593	6.68
449.953	6.67
450.313	6.66
450.673	6.65
451.033	6.65
451.393	6.66
451.753	6.67
452.113	7.1
452.472	7.1
452.832	7.07
453.192	7.05
453.551	7.02
453.911	6.97
454.271	6.91
454.63	6.88
454.989	6.84
455.349	6.81
455.708	6.79
456.068	6.55
456.427	6.53
456.786	6.53
457.145	6.55
457.505	6.56
457.864	6.58
458.223	6.61
458.582	6.65
458.941	6.67
459.3	6.69
459.659	6.71
460.018	6.73
460.376	6.75
460.735	6.75
461.094	6.75
461.453	6.74
461.811	6.74
462.17	6.74
462.529	6.72
462.887	6.72
463.246	6.72
463.604	6.72
463.963	6.72
464.321	6.8
464.679	6.81
465.038	6.82
465.396	6.82
465.754	6.85
466.112	6.86
466.47	6.88
466.828	6.9
467.186	6.91
467.544	6.92
467.902	6.93
468.26	6.84
468.618	6.84
468.976	6.85
469.334	6.86
469.692	6.85
470.049	6.84
470.407	6.84
470.765	6.84
471.122	6.82
471.48	6.83
471.837	6.83
472.195	6.84
472.552	6.86
472.909	6.84
473.267	6.84
473.624	6.85
473.981	6.85
474.338	6.84
474.696	6.82
475.053	6.84
475.41	6.81
475.767	6.81
476.124	6.8
476.481	6.79
476.838	6.79
477.194	6.78
477.551	6.76
477.908	6.76
478.265	6.76
478.621	6.78
478.978	6.78
479.335	6.8
479.691	6.81
480.048	6.81
480.404	6.8
480.761	6.82
481.117	6.83
481.473	6.85
481.83	6.84
482.186	6.84
482.542	6.84
482.898	6.82
483.255	6.8
483.611	6.78
483.967	6.76
484.323	6.76
484.679	6.75
485.035	6.73
485.39	6.73
485.746	6.75
486.102	6.76
486.458	6.75
486.814	6.77
487.169	6.79
487.525	6.79
487.88	6.8
488.236	6.81
488.591	6.8
488.947	6.82
489.302	6.82
489.658	6.81
490.013	6.79
490.368	6.77
490.723	6.75
491.079	6.73
491.434	6.73
491.789	6.74
492.144	6.72
492.499	6.71
492.854	6.7
493.209	6.68
493.564	6.68
493.919	6.68
494.273	6.67
494.628	6.67
494.983	6.68
495.338	6.66
495.692	6.65
496.047	6.66
496.401	6.65
496.756	6.63
497.11	6.62
497.465	6.6
497.819	6.57
498.173	6.57
498.528	6.56
498.882	6.54
499.236	6.54
499.59	6.52
499.944	6.52
500.298	6.52
500.652	6.51
501.006	6.51
501.36	6.51
501.714	6.52
502.068	6.52
502.422	6.52
502.776	6.52
503.129	6.53
503.483	6.55
503.837	6.55
504.19	6.56
504.544	6.57
504.897	6.57
505.251	6.56
505.604	6.56
505.958	6.55
506.311	6.54
506.664	6.53
507.017	6.51
507.371	6.49
507.724	6.46
508.077	6.45
508.43	6.44
508.783	6.45
509.136	6.45
509.489	6.43
509.842	6.44
510.195	6.44
510.547	6.43
510.9	6.43
511.253	6.42
511.606	6.41
511.958	6.39
512.311	6.38
512.663	6.34
513.016	6.31
513.368	6.28
513.721	6.25
514.073	6.23
514.425	6.22
514.778	6.21
515.13	6.21
515.482	6.2
515.834	6.19
516.186	6.18
516.538	6.19
516.89	6.21
517.242	6.22
517.594	6.24
517.946	6.24
518.298	6.24
518.65	6.24
519.001	6.24
519.353	6.21
519.705	6.23
520.056	6.22
520.408	6.21
520.759	6.2
521.111	6.2
521.462	6.19
521.814	6.18
522.165	6.19
522.516	6.18
522.868	6.16
523.219	6.15
523.57	6.13
523.921	6.11
524.272	6.1
524.623	6.07
524.974	6.02
525.325	5.99
525.676	5.97
526.027	5.95
526.378	5.94
526.728	5.94
527.079	5.96
527.43	5.97
527.78	5.96
528.131	5.95
528.481	5.95
528.832	5.96
529.182	5.94
529.533	5.95
529.883	5.92
530.233	5.91
530.584	5.91
530.934	5.87
531.284	5.82
531.634	5.8
531.984	5.78
532.334	5.77
532.684	5.75
533.034	5.76
533.384	5.75
533.734	5.76
534.084	5.73
534.434	5.72
534.783	5.72
535.133	5.71
535.483	5.72
535.832	5.74
536.182	5.71
536.531	5.7
536.881	5.68
537.23	5.67
537.58	5.66
537.929	5.69
538.278	6.95
538.628	6.96
538.977	6.95
539.326	6.95
539.675	6.91
540.024	6.91
540.373	6.88
540.722	6.87
541.071	6.86
541.42	6.86
541.769	6.83
542.117	5.53
542.466	5.47
542.815	5.47
543.163	5.45
543.512	5.4
543.861	5.38
544.209	5.37
544.558	5.36
544.906	5.34
545.254	5.3
545.603	5.29
545.951	5.3
546.299	5.33
546.647	5.35
546.996	5.37
547.344	5.4
547.692	5.4
548.04	5.42
548.388	5.43
548.736	5.42
549.083	5.41
549.431	5.4
549.779	5.38
550.127	5.33
550.475	5.26
550.822	5.2
551.17	5.18
551.517	5.16
551.865	5.12
552.212	5.11
552.56	5.12
552.907	5.11
553.254	5.11
553.602	5.1
553.949	5.09
554.296	5.09
554.643	5.1
554.99	5.09
555.337	5.08
555.684	5.1
556.031	5.07
556.378	5.05
556.725	5.04
557.072	5.02
557.419	5.03
557.765	5.02
558.112	5.02
558.459	5
558.805	4.97
559.152	4.95
559.498	4.94
559.845	4.93
560.191	4.93
560.538	4.91
560.884	4.92
561.23	4.89
561.576	4.86
561.923	4.84
562.269	4.82
562.615	4.82
562.961	4.81
563.307	4.79
563.653	4.81
563.999	4.8
564.344	4.78
564.69	4.75
565.036	4.76
565.382	4.73
565.727	4.71
566.073	4.72
566.419	4.72
566.764	4.72
567.11	4.72
567.455	4.71
567.8	4.73
568.146	4.74
568.491	4.74
568.836	4.69
569.181	4.69
569.527	4.67
569.872	4.63
570.217	4.6
570.562	4.6
570.907	4.58
571.252	4.56
571.597	4.53
571.941	4.52
572.286	4.51
572.631	4.52
572.976	4.53
573.32	4.54
573.665	4.55
574.009	4.58
574.354	4.62
574.698	4.63
575.043	4.64
575.387	4.65
575.731	4.65
576.076	4.65
576.42	4.64
576.764	4.62
577.108	4.6
577.452	4.6
577.796	4.55
578.14	4.54
578.484	4.53
578.828	4.51
579.172	4.5
579.516	4.49
579.86	4.49
580.203	4.5
580.547	4.5
580.891	4.49
581.234	4.47
581.578	4.46
581.921	4.42
582.264	4.42
582.608	4.4
582.951	4.4
583.294	4.39
583.638	4.39
583.981	4.39
584.324	4.4
584.667	4.4
585.01	4.39
585.353	4.39
585.696	4.39
586.039	4.39
586.382	4.39
586.725	4.39
587.067	4.39
587.41	4.38
587.753	4.35
588.095	4.33
588.438	4.33
588.781	4.32
589.123	4.31
589.465	4.3
589.808	4.3
590.15	4.29
590.492	4.3
590.835	4.3
591.177	4.31
591.519	4.26
591.861	4.26
592.203	4.26
592.545	4.27
592.887	4.29
593.229	4.28
593.571	4.28
593.913	4.27
594.254	4.25
594.596	4.26
594.938	4.27
595.279	4.27
595.621	4.3
595.963	4.31
596.304	4.31
596.645	4.32
596.987	4.32
597.328	4.32
597.669	4.32
598.011	4.32
598.352	4.3
598.693	4.3
599.034	4.31
599.375	4.3
599.716	4.3
600.057	4.31
600.398	4.31
600.739	4.33
601.08	4.35
601.42	4.35
601.761	4.39
602.102	4.39
602.442	4.41
602.783	4.4
603.123	4.38
603.464	4.38
603.804	4.37
604.145	4.38
604.485	4.39
604.825	4.38
605.166	4.35
605.506	4.35
605.846	4.35
606.186	4.35
606.526	4.34
606.866	4.36
607.206	4.37
607.546	4.35
607.886	4.33
608.225	4.29
608.565	4.28
608.905	4.24
609.245	4.18
609.584	4.16
609.924	4.14
610.263	4.14
610.603	4.13
610.942	4.12
611.281	4.1
611.621	4.09
611.96	4.04
612.299	4.07
612.638	4.07
612.978	4.08
613.317	4.08
613.656	4.09
613.995	4.1
614.334	4.09
614.672	4.09
615.011	4.09
615.35	4.08
615.689	4.07
616.027	4.07
616.366	4.09
616.705	4.13
617.043	4.13
617.382	4.12
617.72	4.11
618.059	4.11
618.397	4.13
618.735	4.14
619.073	4.14
619.412	4.14
619.75	4.12
620.088	4.1
620.426	4.1
620.764	4.08
621.102	4.06
621.44	4.04
621.778	4.02
622.115	4
622.453	4.02
622.791	4.02
623.129	4.02
623.466	4.01
623.804	4
624.141	3.98
624.479	3.99
624.816	4.01
625.153	4.02
625.491	4.02
625.828	3.99
626.165	3.98
626.502	3.98
626.84	3.98
627.177	3.99
627.514	3.97
627.851	3.96
628.188	3.98
628.524	3.92
628.861	3.92
629.198	3.89
629.535	3.85
629.871	3.83
630.208	3.85
630.545	3.86
630.881	3.8
631.218	3.79
631.554	3.8
631.89	3.76
632.227	3.76
632.563	3.75
632.899	3.73
633.235	3.71
633.572	3.7
633.908	3.68
634.244	3.69
634.58	3.77
634.916	3.76
635.251	3.8
635.587	3.85
635.923	3.87
636.259	3.87
636.595	3.89
636.93	3.93
637.266	3.95
637.601	3.98
637.937	3.88
638.272	3.83
638.608	3.88
638.943	3.8
639.278	3.76
639.613	3.76
639.949	3.77
640.284	3.76
640.619	3.73
640.954	3.7
641.289	3.68
641.624	3.71
641.959	3.75
642.294	3.71
642.628	3.7
642.963	3.75
643.298	3.7
643.632	3.77
643.967	3.78
644.302	3.78
644.636	3.82
644.971	3.78
645.305	3.83
645.639	3.81
645.974	3.81
646.308	3.86
646.642	3.83
646.976	3.92
647.31	3.84
647.644	3.84
647.978	3.88
648.312	3.87
648.646	3.85
648.98	3.84
649.314	3.78
649.647	3.8
649.981	3.73
650.315	3.67
650.648	3.61
650.982	3.63
651.315	3.57
651.649	3.53
651.982	3.45
652.316	3.5
652.649	3.5
652.982	3.6
653.315	3.57
653.648	3.65
653.982	3.73
654.315	3.77
654.648	3.73
654.981	3.76
655.313	3.79
655.646	3.86
655.979	3.81
656.312	3.78
656.644	3.74
656.977	3.73
657.31	3.61
657.642	3.48
657.975	3.42
658.307	3.44
658.64	3.42
658.972	3.39
659.304	3.35
659.636	3.36
659.969	3.33
660.301	3.28
660.633	3.31
660.965	3.35
661.297	3.46
661.629	3.48
661.961	3.44
662.292	3.46
662.624	3.51
662.956	3.52
663.288	3.6
663.619	3.68
663.951	3.77
664.282	3.73
664.614	3.73
664.945	3.72
665.276	3.71
665.608	3.79
665.939	3.77
666.27	3.69
666.601	3.74
666.933	3.69
667.264	3.68
667.595	3.6
667.926	3.54
668.256	3.53
668.587	3.46
668.918	3.44
669.249	3.36
669.58	3.37
669.91	3.42
670.241	3.35
670.571	3.37
670.902	3.25
671.232	3.31
671.563	3.35
671.893	3.37
672.223	3.38
672.554	3.44
672.884	3.44
673.214	3.39
673.544	3.42
673.874	3.37
674.204	3.38
674.534	3.47
674.864	3.47
675.194	3.52
675.524	3.51
675.853	3.57
676.183	3.52
676.513	3.56
676.842	3.53
677.172	3.52
677.501	3.6
677.831	3.58
678.16	3.54
678.489	3.47
678.819	3.45
679.148	3.55
679.477	3.54
679.806	3.52
680.135	3.51
680.464	3.6
680.793	3.62
681.122	3.55
681.451	3.56
681.78	3.53
682.108	3.55
682.437	3.49
682.766	3.42
683.094	3.35
683.423	3.32
683.751	3.43
684.08	3.35
684.408	3.19
684.737	3.21
685.065	3.09
685.393	3.22
685.721	3.22
686.049	3.24
686.377	3.17
686.705	3.17
687.033	3.23
687.361	3.18
687.689	3.22
688.017	3.31
688.345	3.29
688.673	3.39
689.0	3.3
689.328	3.32
689.655	3.44
689.983	3.53
690.31	3.56
690.638	3.6
690.965	3.51
691.292	3.58
691.62	3.58
691.947	3.56
692.274	3.49
692.601	3.44
692.928	3.45
693.255	3.29
693.582	3.23
693.909	3.25
694.236	3.22
694.562	3.32
694.889	3.31
695.216	3.29
695.542	3.34
695.869	3.25
