Data from thigh2_Reflection__2__15-12-57-150.txt Node

Date: Thu Aug 04 15:12:57 AEST 2022
User: kathy
Spectrometer: JAZA2503
Trigger mode: 0
Integration Time (sec): 2.439700E-1
Scans to average: 10
Electric dark correction enabled: true
Nonlinearity correction enabled: true
Boxcar width: 5
XAxis mode: Wavelengths
Number of Pixels in Spectrum: 2048
>>>>>Begin Spectral Data<<<<<
189.467	230.55
189.852	194.35
190.237	164.37
190.622	171.77
191.007	183.19
191.392	98.19
191.777	39.84
192.162	19.17
192.546	-26.29
192.931	-231.26
193.316	202.3
193.701	367.66
194.086	162.01
194.47	49.03
194.855	-333.38
195.24	299.27
195.624	-44.91
196.009	-56.58
196.393	-55.51
196.778	-95.7
197.163	21.39
197.547	28.5
197.931	7.71
198.316	21.65
198.7	30.13
199.085	40.46
199.469	50.34
199.853	50.29
200.237	47.01
200.622	40.15
201.006	37.48
201.39	31.52
201.774	31.36
202.158	33.17
202.542	28.99
202.926	27.41
203.31	16.54
203.694	-0.22
204.078	1.16
204.462	5.87
204.846	7.3
205.23	10.95
205.614	12.03
205.998	14.14
206.381	20.37
206.765	24.66
207.149	15.63
207.532	16.54
207.916	18.8
208.3	14.83
208.683	14.76
209.067	19.35
209.45	6.79
209.834	7.37
210.217	3.61
210.601	-1.71
210.984	4.58
211.367	21.49
211.751	24.1
212.134	26
212.517	31.61
212.901	31.15
213.284	25.42
213.667	30.29
214.05	29.96
214.433	30.54
214.816	30.47
215.199	24.73
215.582	18.72
215.965	16.51
216.348	13.2
216.731	2.14
217.114	-5.81
217.497	-5.96
217.88	-9.83
218.262	-21.63
218.645	-24.72
219.028	-19.97
219.411	-21.57
219.793	-17.7
220.176	-18.22
220.559	-10.36
220.941	-4.31
221.324	6.03
221.706	12.11
222.089	17.48
222.471	20.34
222.853	22.41
223.236	20.45
223.618	19.6
224	18.15
224.383	16.42
224.765	13.25
225.147	12.8
225.529	9.13
225.912	5.21
226.294	1.63
226.676	0.31
227.058	-0.82
227.44	-0.86
227.822	-0.14
228.204	1.09
228.586	1.51
228.968	1.57
229.349	1.35
229.731	1.25
230.113	1.11
230.495	1.23
230.877	1.43
231.258	1.83
231.64	1.7
232.022	1.35
232.403	0.83
232.785	1.18
233.166	0.9
233.548	0.76
233.929	0.71
234.311	1.04
234.692	1.44
235.073	1.58
235.455	1.82
235.836	2.74
236.217	2.68
236.599	2.83
236.98	2.86
237.361	3
237.742	2.89
238.123	2.67
238.504	2.49
238.885	2.51
239.266	2.54
239.647	2.1
240.028	1.81
240.409	1.94
240.79	2.01
241.171	1.55
241.552	1.65
241.933	1.78
242.313	2.05
242.694	2.21
243.075	2.29
243.456	2.16
243.836	2.2
244.217	2.31
244.597	2.34
244.978	2.14
245.358	2.34
245.739	2.16
246.119	2.17
246.5	2.12
246.88	2.01
247.26	1.77
247.641	1.7
248.021	1.68
248.401	1.46
248.781	1.48
249.162	1.6
249.542	1.47
249.922	1.47
250.302	1.5
250.682	1.34
251.062	1.33
251.442	1.4
251.822	1.49
252.202	1.46
252.582	1.46
252.961	1.6
253.341	1.57
253.721	1.69
254.101	1.9
254.48	1.79
254.86	1.96
255.24	2.16
255.619	2.33
255.999	2.41
256.378	2.43
256.758	2.61
257.137	2.29
257.517	2.01
257.896	1.92
258.276	1.73
258.655	1.43
259.034	1.21
259.414	0.99
259.793	0.86
260.172	0.78
260.551	0.74
260.93	0.57
261.309	0.66
261.688	0.62
262.068	0.62
262.447	0.62
262.825	0.74
263.204	0.72
263.583	0.73
263.962	0.78
264.341	0.87
264.72	0.79
265.099	0.93
265.477	0.82
265.856	0.97
266.235	0.94
266.613	0.93
266.992	0.86
267.371	0.92
267.749	1.01
268.128	0.91
268.506	0.83
268.884	0.96
269.263	0.9
269.641	0.83
270.02	0.77
270.398	0.73
270.776	0.78
271.154	0.86
271.533	0.92
271.911	0.88
272.289	0.87
272.667	0.95
273.045	0.96
273.423	0.98
273.801	1.02
274.179	1.04
274.557	1.1
274.935	1.06
275.313	1.01
275.69	1.04
276.068	1.11
276.446	1.16
276.824	1.07
277.201	1.05
277.579	1.1
277.957	1.08
278.334	1.07
278.712	1.02
279.089	1.02
279.467	0.97
279.844	0.98
280.222	0.86
280.599	0.86
280.976	0.86
281.354	0.8
281.731	0.74
282.108	0.79
282.485	0.77
282.863	0.75
283.24	0.75
283.617	0.82
283.994	0.81
284.371	0.88
284.748	0.9
285.125	0.94
285.502	1.01
285.879	1.08
286.256	1.09
286.633	1.19
287.009	1.28
287.386	1.33
287.763	1.35
288.139	1.33
288.516	1.37
288.893	1.42
289.269	1.46
289.646	1.49
290.022	1.5
290.399	1.55
290.775	1.55
291.152	1.59
291.528	1.6
291.904	1.61
292.281	1.63
292.657	1.65
293.033	1.66
293.41	1.71
293.786	1.73
294.162	1.79
294.538	1.78
294.914	1.83
295.29	1.85
295.666	1.91
296.042	1.99
296.418	2.1
296.794	2.14
297.17	2.23
297.546	2.25
297.921	2.31
298.297	2.36
298.673	2.41
299.048	2.45
299.424	2.51
299.8	2.54
300.175	2.56
300.551	2.6
300.926	2.64
301.302	2.67
301.677	2.73
302.053	2.79
302.428	2.82
302.803	2.91
303.179	3
303.554	3.05
303.929	3.12
304.304	3.23
304.68	3.3
305.055	3.38
305.43	3.43
305.805	3.51
306.18	3.54
306.555	3.61
306.93	3.66
307.305	3.67
307.679	3.71
308.054	3.74
308.429	3.7
308.804	3.71
309.179	3.71
309.553	3.73
309.928	3.71
310.303	3.74
310.677	3.79
311.052	3.78
311.426	3.81
311.801	3.83
312.175	3.84
312.55	3.9
312.924	3.91
313.298	3.96
313.673	3.97
314.047	4
314.421	4.02
314.795	4.05
315.17	4.08
315.544	4.09
315.918	4.14
316.292	4.2
316.666	4.29
317.04	4.38
317.414	4.44
317.788	4.56
318.162	4.64
318.535	4.71
318.909	4.77
319.283	4.9
319.657	5
320.03	5.13
320.404	5.26
320.778	5.43
321.151	5.65
321.525	5.89
321.898	6.14
322.272	6.25
322.645	6.49
323.019	6.64
323.392	6.92
323.765	7.3
324.139	7.67
324.512	8.1
324.885	8.54
325.258	8.92
325.632	9.22
326.005	9.43
326.378	9.58
326.751	9.67
327.124	9.7
327.497	9.65
327.87	9.69
328.243	9.62
328.616	9.63
328.988	9.64
329.361	9.63
329.734	9.62
330.107	9.56
330.479	9.47
330.852	9.4
331.225	9.39
331.597	9.25
331.97	9.1
332.342	8.95
332.715	8.83
333.087	8.69
333.46	8.52
333.832	8.42
334.204	8.43
334.577	8.44
334.949	8.38
335.321	8.37
335.693	8.32
336.065	8.18
336.438	8.04
336.81	7.94
337.182	7.79
337.554	7.61
337.926	7.53
338.298	7.41
338.669	7.29
339.041	7.14
339.413	7.08
339.785	7
340.157	6.89
340.528	6.83
340.9	6.76
341.272	6.69
341.643	6.64
342.015	6.6
342.386	6.62
342.758	6.67
343.129	6.76
343.501	6.73
343.872	6.72
344.243	6.7
344.615	6.65
344.986	6.57
345.357	6.57
345.728	6.61
346.099	6.63
346.471	6.57
346.842	6.53
347.213	6.46
347.584	6.4
347.955	6.37
348.326	6.29
348.697	6.23
349.067	6.23
349.438	6.23
349.809	6.25
350.18	6.26
350.55	6.28
350.921	6.3
351.292	6.32
351.662	6.34
352.033	6.34
352.403	6.31
352.774	6.3
353.144	6.33
353.515	6.32
353.885	6.33
354.255	6.31
354.626	6.28
354.996	6.26
355.366	6.24
355.736	6.2
356.107	6.16
356.477	6.17
356.847	6.18
357.217	6.12
357.587	6.1
357.957	6.09
358.327	6.07
358.697	6.08
359.066	6.09
359.436	6.08
359.806	6.07
360.176	6.1
360.546	6.07
360.915	6.08
361.285	6.1
361.654	6.09
362.024	6.07
362.393	6.07
362.763	6.05
363.132	6.02
363.502	6.02
363.871	6
364.24	5.98
364.61	5.98
364.979	5.97
365.348	5.97
365.717	5.98
366.087	5.99
366.456	6
366.825	6.01
367.194	6.02
367.563	6.04
367.932	6.06
368.301	6.06
368.669	6.07
369.038	6.05
369.407	6.05
369.776	6.02
370.145	6.01
370.513	5.99
370.882	5.99
371.25	6
371.619	5.98
371.988	5.99
372.356	5.99
372.724	5.99
373.093	5.99
373.461	5.98
373.83	5.99
374.198	6.01
374.566	6.02
374.934	6.04
375.303	6.05
375.671	6.06
376.039	6.05
376.407	6.08
376.775	6.09
377.143	6.13
377.511	6.14
377.879	6.14
378.247	6.14
378.615	6.15
378.982	6.15
379.35	6.13
379.718	6.14
380.086	6.14
380.453	6.11
380.821	6.13
381.188	6.1
381.556	6.11
381.923	6.13
382.291	6.11
382.658	6.09
383.026	6.11
383.393	6.13
383.76	6.13
384.128	6.13
384.495	6.15
384.862	6.12
385.229	6.14
385.596	6.11
385.963	6.09
386.33	6.11
386.697	6.13
387.064	6.1
387.431	6.08
387.798	6.07
388.165	6.07
388.532	6.07
388.899	6.06
389.265	6.05
389.632	6.06
389.999	6.07
390.365	6.07
390.732	6.08
391.098	6.09
391.465	6.08
391.831	6.07
392.198	6.07
392.564	6.06
392.93	6.08
393.297	6.09
393.663	6.09
394.029	6.1
394.395	6.1
394.762	6.09
395.128	6.09
395.494	6.1
395.86	6.14
396.226	6.15
396.592	6.16
396.958	6.16
397.323	6.16
397.689	6.19
398.055	6.2
398.421	6.22
398.787	6.22
399.152	6.24
399.518	6.24
399.883	6.23
400.249	6.25
400.615	6.24
400.98	6.24
401.345	6.25
401.711	6.22
402.076	6.23
402.442	6.22
402.807	6.25
403.172	6.27
403.537	6.25
403.902	6.26
404.268	6.24
404.633	6.26
404.998	6.27
405.363	6.26
405.728	6.28
406.093	6.29
406.457	6.29
406.822	6.28
407.187	6.28
407.552	6.31
407.917	6.33
408.281	6.32
408.646	6.31
409.011	6.32
409.375	6.33
409.74	6.31
410.104	6.31
410.469	6.3
410.833	6.29
411.197	6.29
411.562	6.29
411.926	6.28
412.29	6.31
412.655	6.34
413.019	6.31
413.383	6.3
413.747	6.34
414.111	6.35
414.475	6.38
414.839	6.39
415.203	6.42
415.567	6.43
415.931	6.45
416.295	6.47
416.658	6.46
417.022	6.5
417.386	6.52
417.749	6.52
418.113	6.52
418.477	6.51
418.84	6.51
419.204	6.51
419.567	6.51
419.931	6.49
420.294	6.48
420.657	6.49
421.021	6.48
421.384	6.48
421.747	6.48
422.11	6.48
422.473	6.48
422.836	6.49
423.199	6.49
423.562	6.51
423.925	6.52
424.288	6.52
424.651	6.53
425.014	6.56
425.377	6.58
425.74	6.59
426.102	6.6
426.465	6.63
426.828	6.64
427.19	6.66
427.553	6.66
427.916	6.67
428.278	6.69
428.641	6.69
429.003	6.7
429.365	6.7
429.728	6.7
430.09	6.71
430.452	6.72
430.814	6.72
431.177	6.69
431.539	6.69
431.901	6.71
432.263	6.72
432.625	6.73
432.987	6.75
433.349	6.77
433.711	6.8
434.072	6.82
434.434	6.83
434.796	6.85
435.158	6.92
435.519	6.96
435.881	6.99
436.243	7.01
436.604	7.03
436.966	7.04
437.327	7.07
437.689	7.07
438.05	7.06
438.411	7.07
438.773	7.09
439.134	7.1
439.495	7.09
439.856	7.1
440.218	7.09
440.579	7.08
440.94	7.09
441.301	7.08
441.662	7.12
442.023	7.14
442.384	7.15
442.745	7.15
443.105	7.14
443.466	7.15
443.827	7.14
444.188	7.15
444.548	7.19
444.909	7.22
445.269	7.22
445.63	7.2
445.99	7.2
446.351	7.22
446.711	7.23
447.072	7.28
447.432	7.29
447.792	7.31
448.153	7.33
448.513	7.34
448.873	7.32
449.233	7.34
449.593	7.38
449.953	7.42
450.313	7.42
450.673	7.44
451.033	7.45
451.393	7.46
451.753	7.49
452.113	7.89
452.472	7.9
452.832	7.9
453.192	7.88
453.551	7.85
453.911	7.81
454.271	7.78
454.63	7.74
454.989	7.72
455.349	7.72
455.708	7.7
456.068	7.51
456.427	7.5
456.786	7.51
457.145	7.53
457.505	7.56
457.864	7.59
458.223	7.63
458.582	7.67
458.941	7.71
459.3	7.73
459.659	7.75
460.018	7.77
460.376	7.79
460.735	7.81
461.094	7.82
461.453	7.83
461.811	7.82
462.17	7.83
462.529	7.83
462.887	7.83
463.246	7.84
463.604	7.84
463.963	7.84
464.321	7.9
464.679	7.9
465.038	7.91
465.396	7.92
465.754	7.95
466.112	7.95
466.47	7.98
466.828	7.99
467.186	8.01
467.544	8.05
467.902	8.06
468.26	8
468.618	8.03
468.976	8.03
469.334	8.05
469.692	8.05
470.049	8.05
470.407	8.04
470.765	8.06
471.122	8.06
471.48	8.07
471.837	8.1
472.195	8.14
472.552	8.16
472.909	8.2
473.267	8.23
473.624	8.24
473.981	8.25
474.338	8.26
474.696	8.27
475.053	8.29
475.41	8.29
475.767	8.29
476.124	8.28
476.481	8.27
476.838	8.28
477.194	8.29
477.551	8.32
477.908	8.34
478.265	8.35
478.621	8.37
478.978	8.39
479.335	8.4
479.691	8.41
480.048	8.44
480.404	8.46
480.761	8.45
481.117	8.46
481.473	8.46
481.83	8.46
482.186	8.46
482.542	8.45
482.898	8.46
483.255	8.46
483.611	8.47
483.967	8.46
484.323	8.47
484.679	8.48
485.035	8.48
485.39	8.49
485.746	8.51
486.102	8.52
486.458	8.54
486.814	8.53
487.169	8.55
487.525	8.57
487.88	8.6
488.236	8.6
488.591	8.59
488.947	8.6
489.302	8.6
489.658	8.6
490.013	8.6
490.368	8.58
490.723	8.57
491.079	8.56
491.434	8.56
491.789	8.55
492.144	8.54
492.499	8.55
492.854	8.55
493.209	8.56
493.564	8.56
493.919	8.56
494.273	8.57
494.628	8.58
494.983	8.58
495.338	8.57
495.692	8.57
496.047	8.56
496.401	8.55
496.756	8.53
497.11	8.51
497.465	8.49
497.819	8.48
498.173	8.48
498.528	8.47
498.882	8.46
499.236	8.47
499.59	8.46
499.944	8.46
500.298	8.46
500.652	8.46
501.006	8.47
501.36	8.47
501.714	8.48
502.068	8.47
502.422	8.48
502.776	8.48
503.129	8.49
503.483	8.48
503.837	8.5
504.19	8.5
504.544	8.51
504.897	8.5
505.251	8.48
505.604	8.48
505.958	8.46
506.311	8.45
506.664	8.42
507.017	8.39
507.371	8.38
507.724	8.35
508.077	8.33
508.43	8.31
508.783	8.31
509.136	8.31
509.489	8.29
509.842	8.28
510.195	8.28
510.547	8.27
510.9	8.26
511.253	8.25
511.606	8.24
511.958	8.2
512.311	8.17
512.663	8.13
513.016	8.1
513.368	8.08
513.721	8.06
514.073	8.04
514.425	8.04
514.778	8.02
515.13	8.01
515.482	8
515.834	8
516.186	8
516.538	8.01
516.89	8.01
517.242	8.02
517.594	8.02
517.946	8.03
518.298	8.01
518.65	8.01
519.001	7.99
519.353	7.98
519.705	7.99
520.056	7.96
520.408	7.95
520.759	7.92
521.111	7.89
521.462	7.88
521.814	7.86
522.165	7.86
522.516	7.82
522.868	7.83
523.219	7.81
523.57	7.79
523.921	7.75
524.272	7.71
524.623	7.69
524.974	7.66
525.325	7.63
525.676	7.59
526.027	7.54
526.378	7.54
526.728	7.51
527.079	7.49
527.43	7.47
527.78	7.47
528.131	7.46
528.481	7.45
528.832	7.42
529.182	7.39
529.533	7.38
529.883	7.38
530.233	7.36
530.584	7.36
530.934	7.33
531.284	7.29
531.634	7.26
531.984	7.25
532.334	7.23
532.684	7.22
533.034	7.22
533.384	7.23
533.734	7.2
534.084	7.16
534.434	7.12
534.783	7.11
535.133	7.11
535.483	7.11
535.832	7.08
536.182	7.06
536.531	7.04
536.881	7.02
537.23	6.97
537.58	6.95
537.929	6.95
538.278	8.16
538.628	8.16
538.977	8.13
539.326	8.1
539.675	8.06
540.024	8.03
540.373	7.99
540.722	7.97
541.071	7.96
541.42	7.95
541.769	7.92
542.117	6.67
542.466	6.61
542.815	6.59
543.163	6.54
543.512	6.51
543.861	6.49
544.209	6.49
544.558	6.46
544.906	6.43
545.254	6.4
545.603	6.37
545.951	6.35
546.299	6.37
546.647	6.39
546.996	6.39
547.344	6.38
547.692	6.35
548.04	6.32
548.388	6.32
548.736	6.29
549.083	6.3
549.431	6.28
549.779	6.24
550.127	6.18
550.475	6.11
550.822	6.09
551.17	6.09
551.517	6.09
551.865	6.07
552.212	6.06
552.56	6.06
552.907	6.03
553.254	6
553.602	5.98
553.949	6
554.296	6
554.643	5.99
554.99	5.95
555.337	5.92
555.684	5.9
556.031	5.86
556.378	5.83
556.725	5.82
557.072	5.82
557.419	5.84
557.765	5.8
558.112	5.77
558.459	5.75
558.805	5.72
559.152	5.69
559.498	5.66
559.845	5.64
560.191	5.63
560.538	5.6
560.884	5.56
561.23	5.51
561.576	5.48
561.923	5.45
562.269	5.43
562.615	5.42
562.961	5.42
563.307	5.42
563.653	5.41
563.999	5.39
564.344	5.37
564.69	5.35
565.036	5.36
565.382	5.35
565.727	5.33
566.073	5.32
566.419	5.3
566.764	5.31
567.11	5.31
567.455	5.28
567.8	5.29
568.146	5.29
568.491	5.28
568.836	5.22
569.181	5.19
569.527	5.18
569.872	5.15
570.217	5.08
570.562	5.04
570.907	5.03
571.252	5.03
571.597	5
571.941	4.98
572.286	4.99
572.631	4.99
572.976	5
573.32	5.01
573.665	5.02
574.009	5.03
574.354	5.04
574.698	5.04
575.043	5.04
575.387	5.05
575.731	5.07
576.076	5.06
576.42	5.05
576.764	5.03
577.108	5
577.452	4.98
577.796	4.96
578.14	4.94
578.484	4.89
578.828	4.88
579.172	4.86
579.516	4.85
579.86	4.83
580.203	4.84
580.547	4.85
580.891	4.83
581.234	4.82
581.578	4.82
581.921	4.8
582.264	4.79
582.608	4.77
582.951	4.78
583.294	4.78
583.638	4.79
583.981	4.79
584.324	4.79
584.667	4.81
585.01	4.8
585.353	4.79
585.696	4.8
586.039	4.81
586.382	4.81
586.725	4.82
587.067	4.79
587.41	4.79
587.753	4.77
588.095	4.76
588.438	4.74
588.781	4.73
589.123	4.71
589.465	4.69
589.808	4.69
590.15	4.7
590.492	4.68
590.835	4.65
591.177	4.64
591.519	4.63
591.861	4.63
592.203	4.61
592.545	4.62
592.887	4.62
593.229	4.62
593.571	4.62
593.913	4.61
594.254	4.59
594.596	4.58
594.938	4.57
595.279	4.58
595.621	4.58
595.963	4.56
596.304	4.54
596.645	4.55
596.987	4.55
597.328	4.55
597.669	4.55
598.011	4.55
598.352	4.54
598.693	4.54
599.034	4.53
599.375	4.52
599.716	4.51
600.057	4.52
600.398	4.53
600.739	4.54
601.08	4.55
601.42	4.56
601.761	4.58
602.102	4.58
602.442	4.58
602.783	4.57
603.123	4.55
603.464	4.54
603.804	4.54
604.145	4.54
604.485	4.53
604.825	4.53
605.166	4.51
605.506	4.51
605.846	4.51
606.186	4.51
606.526	4.51
606.866	4.51
607.206	4.5
607.546	4.47
607.886	4.43
608.225	4.42
608.565	4.41
608.905	4.39
609.245	4.34
609.584	4.35
609.924	4.35
610.263	4.35
610.603	4.35
610.942	4.36
611.281	4.4
611.621	4.39
611.96	4.38
612.299	4.39
612.638	4.41
612.978	4.41
613.317	4.41
613.656	4.4
613.995	4.39
614.334	4.41
614.672	4.41
615.011	4.38
615.35	4.37
615.689	4.36
616.027	4.35
616.366	4.37
616.705	4.38
617.043	4.36
617.382	4.35
617.72	4.33
618.059	4.28
618.397	4.27
618.735	4.24
619.073	4.24
619.412	4.23
619.75	4.2
620.088	4.18
620.426	4.18
620.764	4.15
621.102	4.14
621.44	4.14
621.778	4.11
622.115	4.08
622.453	4.08
622.791	4.1
623.129	4.07
623.466	4.03
623.804	4.02
624.141	4.01
624.479	4.01
624.816	4
625.153	4.01
625.491	4.01
625.828	4.01
626.165	4.02
626.502	4.01
626.84	4
627.177	4.02
627.514	4.02
627.851	3.99
628.188	3.98
628.524	3.96
628.861	3.99
629.198	3.97
629.535	3.94
629.871	3.91
630.208	3.9
630.545	3.91
630.881	3.87
631.218	3.88
631.554	3.92
631.89	3.95
632.227	3.96
632.563	3.96
632.899	3.95
633.235	3.93
633.572	3.95
633.908	3.98
634.244	4.01
634.58	4.02
634.916	4
635.251	4.02
635.587	4.01
635.923	4.06
636.259	4.04
636.595	4.06
636.93	4.11
637.266	4.13
637.601	4.06
637.937	3.97
638.272	3.95
638.608	3.93
638.943	3.89
639.278	3.85
639.613	3.77
639.949	3.76
640.284	3.7
640.619	3.7
640.954	3.72
641.289	3.74
641.624	3.75
641.959	3.79
642.294	3.77
642.628	3.75
642.963	3.79
643.298	3.75
643.632	3.87
643.967	3.91
644.302	3.9
644.636	3.9
644.971	3.89
645.305	3.93
645.639	3.87
645.974	3.86
646.308	3.85
646.642	3.78
646.976	3.85
647.31	3.69
647.644	3.69
647.978	3.68
648.312	3.59
648.646	3.62
648.98	3.62
649.314	3.63
649.647	3.62
649.981	3.64
650.315	3.63
650.648	3.61
650.982	3.67
651.315	3.65
651.649	3.66
651.982	3.69
652.316	3.73
652.649	3.71
652.982	3.73
653.315	3.75
653.648	3.75
653.982	3.81
654.315	3.83
654.648	3.76
654.981	3.8
655.313	3.82
655.646	3.84
655.979	3.74
656.312	3.73
656.644	3.71
656.977	3.64
657.31	3.58
657.642	3.48
657.975	3.46
658.307	3.46
658.64	3.45
658.972	3.36
659.304	3.35
659.636	3.37
659.969	3.35
660.301	3.33
660.633	3.38
660.965	3.43
661.297	3.56
661.629	3.58
661.961	3.58
662.292	3.57
662.624	3.6
662.956	3.54
663.288	3.56
663.619	3.66
663.951	3.69
664.282	3.67
664.614	3.62
664.945	3.55
665.276	3.42
665.608	3.44
665.939	3.4
666.27	3.37
666.601	3.46
666.933	3.45
667.264	3.37
667.595	3.35
667.926	3.3
668.256	3.32
668.587	3.29
668.918	3.4
669.249	3.4
669.58	3.44
669.91	3.51
670.241	3.47
670.571	3.49
670.902	3.46
671.232	3.44
671.563	3.53
671.893	3.49
672.223	3.48
672.554	3.42
672.884	3.42
673.214	3.42
673.544	3.4
673.874	3.37
674.204	3.38
674.534	3.48
674.864	3.56
675.194	3.57
675.524	3.63
675.853	3.74
676.183	3.79
676.513	3.81
676.842	3.75
677.172	3.79
677.501	3.8
677.831	3.72
678.16	3.65
678.489	3.58
678.819	3.67
679.148	3.65
679.477	3.68
679.806	3.69
680.135	3.64
680.464	3.71
680.793	3.69
681.122	3.69
681.451	3.72
681.78	3.63
682.108	3.63
682.437	3.42
682.766	3.36
683.094	3.19
683.423	3.13
683.751	3.17
684.08	3.07
684.408	3.02
684.737	2.99
685.065	2.9
685.393	3.01
685.721	2.96
686.049	3.04
686.377	3.06
686.705	3.04
687.033	3.05
687.361	3.04
687.689	3.1
688.017	3.14
688.345	3.21
688.673	3.28
689.0	3.28
689.328	3.34
689.655	3.43
689.983	3.47
690.31	3.58
690.638	3.73
690.965	3.68
691.292	3.72
691.62	3.75
691.947	3.64
692.274	3.71
692.601	3.73
692.928	3.85
693.255	3.74
693.582	3.8
693.909	3.83
694.236	3.74
694.562	3.78
694.889	3.74
695.216	3.7
695.542	3.8
695.869	3.64
696.196	3.62
