Data from groin1_Reflection__0__11-30-50-377.txt Node

Date: Thu Aug 04 11:30:50 AEST 2022
User: kathy
Spectrometer: JAZA2503
Trigger mode: 0
Integration Time (sec): 2.883200E-1
Scans to average: 10
Electric dark correction enabled: true
Nonlinearity correction enabled: true
Boxcar width: 5
XAxis mode: Wavelengths
Number of Pixels in Spectrum: 2048
>>>>>Begin Spectral Data<<<<<
189.467	-154.47
189.852	-346.68
190.237	-7833.95
190.622	-424.63
191.007	-159.71
191.392	-218.7
191.777	-57.77
192.162	-51.77
192.546	-92.04
192.931	-184.74
193.316	-252.16
193.701	-378.05
194.086	267.57
194.47	164.49
194.855	334.08
195.24	6466.41
195.624	267.5
196.009	-85.81
196.393	-34.73
196.778	371.1
197.163	149.96
197.547	73.96
197.931	68.4
198.316	48.95
198.7	52.05
199.085	37.04
199.469	42.63
199.853	37.03
200.237	36.35
200.622	33.74
201.006	34.08
201.39	32.99
201.774	34.37
202.158	34.36
202.542	33.05
202.926	26.34
203.31	24.04
203.694	20.43
204.078	21.45
204.462	24.31
204.846	30.39
205.23	26.09
205.614	24.5
205.998	13.32
206.381	14.28
206.765	16.48
207.149	17.2
207.532	25.61
207.916	31.81
208.3	33.33
208.683	27.62
209.067	24.57
209.45	27.04
209.834	28.36
210.217	35.42
210.601	35.18
210.984	36.92
211.367	40.2
211.751	37.49
212.134	34.54
212.517	31.75
212.901	36.31
213.284	37.19
213.667	38.41
214.05	38.83
214.433	38.43
214.816	39.46
215.199	40.78
215.582	38.64
215.965	38.52
216.348	39.1
216.731	44.01
217.114	41.15
217.497	35.48
217.88	32.8
218.262	32.34
218.645	28.43
219.028	24.42
219.411	24.15
219.793	23.03
220.176	23.13
220.559	21.21
220.941	15.49
221.324	15.97
221.706	17.91
222.089	17.33
222.471	19.05
222.853	19.39
223.236	21.08
223.618	18.74
224	18.01
224.383	15.6
224.765	14.29
225.147	15.34
225.529	14.39
225.912	13.04
226.294	12.05
226.676	9.18
227.058	7.78
227.44	6.43
227.822	6.07
228.204	5.82
228.586	5.36
228.968	5.04
229.349	4.41
229.731	4.24
230.113	3.77
230.495	3.68
230.877	3.63
231.258	3.57
231.64	3.83
232.022	3.61
232.403	3.4
232.785	3.85
233.166	3.91
233.548	4.14
233.929	3.76
234.311	4.1
234.692	3.9
235.073	4.06
235.455	4.11
235.836	3.7
236.217	3.65
236.599	3.46
236.98	2.88
237.361	2.36
237.742	2.34
238.123	2.62
238.504	2.45
238.885	2.31
239.266	2.47
239.647	2.3
240.028	2.37
240.409	2.45
240.79	2.62
241.171	2.76
241.552	2.91
241.933	2.73
242.313	2.6
242.694	2.65
243.075	2.76
243.456	2.58
243.836	2.75
244.217	2.7
244.597	2.71
244.978	2.7
245.358	2.73
245.739	2.72
246.119	2.67
246.5	2.7
246.88	2.63
247.26	2.58
247.641	2.57
248.021	2.54
248.401	2.52
248.781	2.52
249.162	2.52
249.542	2.56
249.922	2.61
250.302	2.65
250.682	2.63
251.062	2.65
251.442	2.54
251.822	2.57
252.202	2.54
252.582	2.55
252.961	2.55
253.341	2.5
253.721	2.44
254.101	2.32
254.48	2.36
254.86	2.29
255.24	2.38
255.619	2.66
255.999	2.43
256.378	2.3
256.758	2.27
257.137	2.15
257.517	2.1
257.896	1.99
258.276	1.9
258.655	1.81
259.034	1.73
259.414	1.62
259.793	1.52
260.172	1.59
260.551	1.59
260.93	1.57
261.309	1.51
261.688	1.51
262.068	1.57
262.447	1.64
262.825	1.65
263.204	1.64
263.583	1.68
263.962	1.77
264.341	1.87
264.72	1.88
265.099	1.82
265.477	1.98
265.856	1.93
266.235	1.7
266.613	1.64
266.992	1.57
267.371	1.65
267.749	1.76
268.128	1.63
268.506	1.56
268.884	1.53
269.263	1.5
269.641	1.37
270.02	1.41
270.398	1.51
270.776	1.56
271.154	1.68
271.533	1.63
271.911	1.54
272.289	1.52
272.667	1.55
273.045	1.57
273.423	1.66
273.801	1.65
274.179	1.66
274.557	1.67
274.935	1.67
275.313	1.56
275.69	1.56
276.068	1.58
276.446	1.61
276.824	1.6
277.201	1.62
277.579	1.6
277.957	1.68
278.334	1.62
278.712	1.63
279.089	1.6
279.467	1.75
279.844	1.81
280.222	1.75
280.599	1.76
280.976	1.72
281.354	1.66
281.731	1.67
282.108	1.63
282.485	1.65
282.863	1.64
283.24	1.63
283.617	1.52
283.994	1.44
284.371	1.47
284.748	1.49
285.125	1.55
285.502	1.59
285.879	1.59
286.256	1.63
286.633	1.69
287.009	1.72
287.386	1.79
287.763	1.89
288.139	1.99
288.516	2.07
288.893	2.13
289.269	2.17
289.646	2.27
290.022	2.31
290.399	2.33
290.775	2.39
291.152	2.44
291.528	2.46
291.904	2.49
292.281	2.52
292.657	2.56
293.033	2.67
293.41	2.77
293.786	2.85
294.162	2.97
294.538	3.1
294.914	3.2
295.29	3.29
295.666	3.42
296.042	3.53
296.418	3.64
296.794	3.77
297.17	3.83
297.546	3.93
297.921	4.01
298.297	4.11
298.673	4.21
299.048	4.3
299.424	4.42
299.8	4.53
300.175	4.66
300.551	4.76
300.926	4.85
301.302	4.96
301.677	5.04
302.053	5.17
302.428	5.25
302.803	5.38
303.179	5.48
303.554	5.59
303.929	5.7
304.304	5.79
304.68	5.9
305.055	6.04
305.43	6.12
305.805	6.21
306.18	6.28
306.555	6.39
306.93	6.46
307.305	6.52
307.679	6.57
308.054	6.6
308.429	6.65
308.804	6.72
309.179	6.75
309.553	6.8
309.928	6.89
310.303	6.96
310.677	6.99
311.052	7.05
311.426	7.12
311.801	7.2
312.175	7.29
312.55	7.38
312.924	7.41
313.298	7.48
313.673	7.58
314.047	7.64
314.421	7.69
314.795	7.82
315.17	7.9
315.544	7.98
315.918	8.07
316.292	8.16
316.666	8.26
317.04	8.42
317.414	8.58
317.788	8.74
318.162	8.9
318.535	9.08
318.909	9.27
319.283	9.44
319.657	9.65
320.03	9.89
320.404	10.19
320.778	10.73
321.151	11.33
321.525	12.04
321.898	12.78
322.272	13.57
322.645	14.36
323.019	15.16
323.392	16.04
323.765	17
324.139	17.92
324.512	18.86
324.885	19.76
325.258	20.54
325.632	21.23
326.005	21.73
326.378	22.08
326.751	22.37
327.124	22.54
327.497	22.6
327.87	22.62
328.243	22.63
328.616	22.61
328.988	22.47
329.361	22.38
329.734	22.18
330.107	21.94
330.479	21.65
330.852	21.4
331.225	21.14
331.597	20.83
331.97	20.57
332.342	20.23
332.715	19.94
333.087	19.65
333.46	19.42
333.832	19.22
334.204	19.05
334.577	18.95
334.949	18.79
335.321	18.52
335.693	18.36
336.065	18.08
336.438	17.8
336.81	17.58
337.182	17.41
337.554	17.22
337.926	17
338.298	16.8
338.669	16.55
339.041	16.37
339.413	16.25
339.785	16.12
340.157	16.03
340.528	15.95
340.9	15.83
341.272	15.71
341.643	15.66
342.015	15.66
342.386	15.67
342.758	15.74
343.129	15.81
343.501	15.86
343.872	15.89
344.243	15.88
344.615	15.85
344.986	15.84
345.357	15.84
345.728	15.84
346.099	15.8
346.471	15.79
346.842	15.78
347.213	15.81
347.584	15.82
347.955	15.85
348.326	15.84
348.697	15.8
349.067	15.8
349.438	15.84
349.809	15.88
350.18	15.98
350.55	16.04
350.921	16.14
351.292	16.21
351.662	16.28
352.033	16.37
352.403	16.41
352.774	16.47
353.144	16.53
353.515	16.58
353.885	16.64
354.255	16.68
354.626	16.73
354.996	16.76
355.366	16.83
355.736	16.86
356.107	16.86
356.477	16.91
356.847	16.92
357.217	16.98
357.587	17.03
357.957	17.06
358.327	17.14
358.697	17.21
359.066	17.25
359.436	17.29
359.806	17.33
360.176	17.42
360.546	17.47
360.915	17.55
361.285	17.58
361.654	17.64
362.024	17.7
362.393	17.75
362.763	17.8
363.132	17.87
363.502	17.95
363.871	18.02
364.24	18.06
364.61	18.16
364.979	18.26
365.348	18.36
365.717	18.46
366.087	18.55
366.456	18.66
366.825	18.77
367.194	18.89
367.563	19
367.932	19.15
368.301	19.31
368.669	19.42
369.038	19.54
369.407	19.69
369.776	19.83
370.145	20
370.513	20.1
370.882	20.28
371.25	20.39
371.619	20.56
371.988	20.73
372.356	20.9
372.724	21.09
373.093	21.26
373.461	21.45
373.83	21.64
374.198	21.85
374.566	22.1
374.934	22.24
375.303	22.46
375.671	22.65
376.039	22.85
376.407	23.05
376.775	23.26
377.143	23.48
377.511	23.66
377.879	23.88
378.247	24.07
378.615	24.25
378.982	24.5
379.35	24.73
379.718	24.98
380.086	25.17
380.453	25.39
380.821	25.62
381.188	25.85
381.556	26.09
381.923	26.27
382.291	26.48
382.658	26.71
383.026	26.92
383.393	27.12
383.76	27.33
384.128	27.53
384.495	27.73
384.862	27.93
385.229	28.13
385.596	28.31
385.963	28.51
386.33	28.68
386.697	28.86
387.064	29.04
387.431	29.22
387.798	29.39
388.165	29.6
388.532	29.75
388.899	29.86
389.265	30.02
389.632	30.21
389.999	30.36
390.365	30.52
390.732	30.65
391.098	30.75
391.465	30.88
391.831	30.98
392.198	31.08
392.564	31.2
392.93	31.36
393.297	31.44
393.663	31.51
394.029	31.63
394.395	31.76
394.762	31.87
395.128	32
395.494	32.1
395.86	32.22
396.226	32.32
396.592	32.45
396.958	32.55
397.323	32.68
397.689	32.81
398.055	32.89
398.421	32.99
398.787	33.08
399.152	33.2
399.518	33.31
399.883	33.42
400.249	33.51
400.615	33.62
400.98	33.71
401.345	33.8
401.711	33.89
402.076	34
402.442	34.09
402.807	34.19
403.172	34.27
403.537	34.35
403.902	34.45
404.268	34.54
404.633	34.61
404.998	34.69
405.363	34.78
405.728	34.86
406.093	34.92
406.457	35.01
406.822	35.1
407.187	35.2
407.552	35.28
407.917	35.36
408.281	35.45
408.646	35.56
409.011	35.63
409.375	35.7
409.74	35.79
410.104	35.9
410.469	35.96
410.833	36.06
411.197	36.13
411.562	36.23
411.926	36.27
412.29	36.38
412.655	36.43
413.019	36.52
413.383	36.59
413.747	36.67
414.111	36.77
414.475	36.88
414.839	36.95
415.203	37.06
415.567	37.14
415.931	37.25
416.295	37.32
416.658	37.38
417.022	37.46
417.386	37.54
417.749	37.59
418.113	37.65
418.477	37.67
418.84	37.74
419.204	37.78
419.567	37.83
419.931	37.9
420.294	37.96
420.657	38.03
421.021	38.09
421.384	38.18
421.747	38.23
422.11	38.33
422.473	38.42
422.836	38.51
423.199	38.54
423.562	38.6
423.925	38.66
424.288	38.7
424.651	38.77
425.014	38.8
425.377	38.86
425.74	38.94
426.102	39
426.465	39.08
426.828	39.12
427.19	39.21
427.553	39.32
427.916	39.41
428.278	39.47
428.641	39.56
429.003	39.66
429.365	39.72
429.728	39.81
430.09	39.88
430.452	39.91
430.814	39.95
431.177	40.01
431.539	40.08
431.901	40.15
432.263	40.24
432.625	40.31
432.987	40.41
433.349	40.53
433.711	40.65
434.072	40.76
434.434	40.9
434.796	41.05
435.158	41.22
435.519	41.35
435.881	41.48
436.243	41.61
436.604	41.74
436.966	41.87
437.327	41.97
437.689	42.05
438.05	42.14
438.411	42.25
438.773	42.36
439.134	42.44
439.495	42.51
439.856	42.61
440.218	42.72
440.579	42.83
440.94	42.92
441.301	43.05
441.662	43.15
442.023	43.27
442.384	43.37
442.745	43.48
443.105	43.58
443.466	43.69
443.827	43.79
444.188	43.91
444.548	44.01
444.909	44.09
445.269	44.13
445.63	44.24
445.99	44.36
446.351	44.44
446.711	44.54
447.072	44.6
447.432	44.72
447.792	44.81
448.153	44.92
448.513	44.99
448.873	45.07
449.233	45.17
449.593	45.27
449.953	45.3
450.313	45.39
450.673	45.45
451.033	45.5
451.393	45.55
451.753	45.63
452.113	45.83
452.472	45.88
452.832	45.97
453.192	46.04
453.551	46.12
453.911	46.25
454.271	46.42
454.63	46.59
454.989	46.76
455.349	46.91
455.708	46.98
456.068	46.95
456.427	47.06
456.786	47.17
457.145	47.31
457.505	47.45
457.864	47.61
458.223	47.77
458.582	47.92
458.941	48.05
459.3	48.13
459.659	48.25
460.018	48.39
460.376	48.46
460.735	48.54
461.094	48.62
461.453	48.69
461.811	48.75
462.17	48.8
462.529	48.86
462.887	48.93
463.246	49.02
463.604	49.11
463.963	49.2
464.321	49.33
464.679	49.41
465.038	49.5
465.396	49.6
465.754	49.68
466.112	49.79
466.47	49.89
466.828	50.03
467.186	50.17
467.544	50.33
467.902	50.45
468.26	50.58
468.618	50.75
468.976	50.89
469.334	51.01
469.692	51.15
470.049	51.27
470.407	51.36
470.765	51.44
471.122	51.6
471.48	51.74
471.837	51.94
472.195	52.1
472.552	52.3
472.909	52.48
473.267	52.68
473.624	52.87
473.981	53.01
474.338	53.21
474.696	53.43
475.053	53.59
475.41	53.78
475.767	53.97
476.124	54.15
476.481	54.28
476.838	54.43
477.194	54.6
477.551	54.75
477.908	54.94
478.265	55.1
478.621	55.24
478.978	55.39
479.335	55.54
479.691	55.71
480.048	55.88
480.404	56.04
480.761	56.22
481.117	56.41
481.473	56.58
481.83	56.73
482.186	56.87
482.542	57.04
482.898	57.23
483.255	57.41
483.611	57.55
483.967	57.73
484.323	57.91
484.679	58.05
485.035	58.2
485.39	58.37
485.746	58.56
486.102	58.73
486.458	58.88
486.814	59.04
487.169	59.19
487.525	59.37
487.88	59.52
488.236	59.65
488.591	59.85
488.947	59.97
489.302	60.15
489.658	60.29
490.013	60.43
490.368	60.57
490.723	60.68
491.079	60.78
491.434	60.88
491.789	61.01
492.144	61.14
492.499	61.27
492.854	61.43
493.209	61.56
493.564	61.69
493.919	61.83
494.273	61.99
494.628	62.13
494.983	62.3
495.338	62.44
495.692	62.57
496.047	62.74
496.401	62.85
496.756	62.97
497.11	63.06
497.465	63.2
497.819	63.34
498.173	63.47
498.528	63.68
498.882	63.93
499.236	64.18
499.59	64.45
499.944	64.68
500.298	64.87
500.652	65.03
501.006	65.2
501.36	65.33
501.714	65.44
502.068	65.55
502.422	65.65
502.776	65.69
503.129	65.76
503.483	65.82
503.837	65.9
504.19	66.05
504.544	66.15
504.897	66.24
505.251	66.3
505.604	66.34
505.958	66.4
506.311	66.42
506.664	66.46
507.017	66.44
507.371	66.43
507.724	66.39
508.077	66.33
508.43	66.32
508.783	66.33
509.136	66.39
509.489	66.46
509.842	66.49
510.195	66.52
510.547	66.58
510.9	66.65
511.253	66.73
511.606	66.83
511.958	66.92
512.311	67.01
512.663	67.09
513.016	67.14
513.368	67.19
513.721	67.26
514.073	67.29
514.425	67.38
514.778	67.42
515.13	67.46
515.482	67.45
515.834	67.47
516.186	67.52
516.538	67.58
516.89	67.66
517.242	67.71
517.594	67.79
517.946	67.89
518.298	67.94
518.65	67.99
519.001	68.02
519.353	68.05
519.705	68.08
520.056	68.07
520.408	68.03
520.759	68
521.111	68.02
521.462	68.05
521.814	68.08
522.165	68.07
522.516	68.09
522.868	68.19
523.219	68.26
523.57	68.32
523.921	68.36
524.272	68.43
524.623	68.5
524.974	68.51
525.325	68.49
525.676	68.49
526.027	68.48
526.378	68.55
526.728	68.55
527.079	68.56
527.43	68.61
527.78	68.64
528.131	68.68
528.481	68.66
528.832	68.69
529.182	68.71
529.533	68.74
529.883	68.86
530.233	68.87
530.584	68.87
530.934	68.92
531.284	68.9
531.634	68.93
531.984	68.96
532.334	69
532.684	69.01
533.034	69.04
533.384	69.04
533.734	69.03
534.084	69.04
534.434	69.07
534.783	69.1
535.133	69.1
535.483	69.13
535.832	69.11
536.182	69.11
536.531	69.17
536.881	69.2
537.23	69.18
537.58	69.14
537.929	69.06
538.278	69.49
538.628	69.38
538.977	69.39
539.326	69.34
539.675	69.32
540.024	69.31
540.373	69.27
540.722	69.23
541.071	69.26
541.42	69.3
541.769	69.33
542.117	68.91
542.466	69
542.815	69.01
543.163	69.05
543.512	69.08
543.861	69.07
544.209	69.1
544.558	69.12
544.906	69.08
545.254	69.04
545.603	69.03
545.951	69.04
546.299	69.04
546.647	69.07
546.996	69.07
547.344	69.08
547.692	69.13
548.04	69.15
548.388	69.16
548.736	69.19
549.083	69.19
549.431	69.16
549.779	69.14
550.127	69.15
550.475	69.1
550.822	69.04
551.17	69
551.517	68.99
551.865	68.94
552.212	68.92
552.56	68.91
552.907	68.93
553.254	68.91
553.602	68.82
553.949	68.77
554.296	68.73
554.643	68.71
554.99	68.69
555.337	68.63
555.684	68.53
556.031	68.43
556.378	68.43
556.725	68.33
557.072	68.36
557.419	68.35
557.765	68.25
558.112	68.23
558.459	68.14
558.805	68.07
559.152	68.02
559.498	68.02
559.845	68.07
560.191	68.02
560.538	68.07
560.884	68
561.23	67.97
561.576	67.96
561.923	67.89
562.269	67.93
562.615	67.94
562.961	67.9
563.307	67.89
563.653	67.87
563.999	67.73
564.344	67.64
564.69	67.66
565.036	67.67
565.382	67.67
565.727	67.66
566.073	67.64
566.419	67.54
566.764	67.49
567.11	67.39
567.455	67.26
567.8	67.3
568.146	67.2
568.491	67.07
568.836	66.99
569.181	66.93
569.527	66.86
569.872	66.84
570.217	66.78
570.562	66.76
570.907	66.75
571.252	66.7
571.597	66.64
571.941	66.6
572.286	66.65
572.631	66.65
572.976	66.64
573.32	66.65
573.665	66.65
574.009	66.64
574.354	66.64
574.698	66.52
575.043	66.52
575.387	66.5
575.731	66.49
576.076	66.44
576.42	66.43
576.764	66.41
577.108	66.36
577.452	66.35
577.796	66.34
578.14	66.32
578.484	66.3
578.828	66.29
579.172	66.27
579.516	66.2
579.86	66.13
580.203	66.07
580.547	66.03
580.891	66
581.234	65.92
581.578	65.84
581.921	65.82
582.264	65.78
582.608	65.72
582.951	65.69
583.294	65.68
583.638	65.67
583.981	65.63
584.324	65.62
584.667	65.61
585.01	65.6
585.353	65.57
585.696	65.54
586.039	65.47
586.382	65.45
586.725	65.44
587.067	65.4
587.41	65.39
587.753	65.36
588.095	65.34
588.438	65.25
588.781	65.24
589.123	65.22
589.465	65.19
589.808	65.2
590.15	65.21
590.492	65.15
590.835	65.1
591.177	65.06
591.519	64.99
591.861	64.91
592.203	64.89
592.545	64.85
592.887	64.73
593.229	64.71
593.571	64.66
593.913	64.63
594.254	64.59
594.596	64.56
594.938	64.54
595.279	64.51
595.621	64.45
595.963	64.42
596.304	64.4
596.645	64.35
596.987	64.3
597.328	64.23
597.669	64.21
598.011	64.2
598.352	64.13
598.693	64.11
599.034	64.05
599.375	64.03
599.716	63.96
600.057	63.96
600.398	63.97
600.739	63.93
601.08	63.92
601.42	63.87
601.761	63.81
602.102	63.78
602.442	63.73
602.783	63.71
603.123	63.61
603.464	63.56
603.804	63.51
604.145	63.46
604.485	63.43
604.825	63.39
605.166	63.29
605.506	63.28
605.846	63.25
606.186	63.2
606.526	63.16
606.866	63.08
607.206	63.03
607.546	62.98
607.886	62.93
608.225	62.87
608.565	62.79
608.905	62.74
609.245	62.7
609.584	62.65
609.924	62.57
610.263	62.57
610.603	62.57
610.942	62.46
611.281	62.44
611.621	62.4
611.96	62.33
612.299	62.28
612.638	62.21
612.978	62.14
613.317	62.08
613.656	62.01
613.995	61.96
614.334	61.87
614.672	61.82
615.011	61.82
615.35	61.73
615.689	61.69
616.027	61.67
616.366	61.64
616.705	61.59
617.043	61.47
617.382	61.5
617.72	61.42
618.059	61.31
618.397	61.28
618.735	61.2
619.073	61.12
619.412	61.11
619.75	61.09
620.088	61.07
620.426	60.98
620.764	60.93
621.102	60.91
621.44	60.88
621.778	60.81
622.115	60.76
622.453	60.73
622.791	60.67
623.129	60.56
623.466	60.56
623.804	60.5
624.141	60.48
624.479	60.47
624.816	60.41
625.153	60.4
625.491	60.38
625.828	60.37
626.165	60.36
626.502	60.34
626.84	60.25
627.177	60.23
627.514	60.25
627.851	60.17
628.188	60.18
628.524	60.1
628.861	60
629.198	59.89
629.535	59.82
629.871	59.71
630.208	59.62
630.545	59.53
630.881	59.4
631.218	59.25
631.554	59.19
631.89	59.02
632.227	58.9
632.563	58.86
632.899	58.77
633.235	58.69
633.572	58.61
633.908	58.55
634.244	58.44
634.58	58.35
634.916	58.34
635.251	58.25
635.587	58.2
635.923	58.16
636.259	58.01
636.595	57.88
636.93	57.76
637.266	57.71
637.601	57.6
637.937	57.6
638.272	57.46
638.608	57.26
638.943	57.13
639.278	57.06
639.613	56.95
639.949	56.97
640.284	56.93
640.619	56.78
640.954	56.65
641.289	56.54
641.624	56.35
641.959	56.21
642.294	56.12
642.628	56.01
642.963	55.94
643.298	55.81
643.632	55.67
643.967	55.57
644.302	55.51
644.636	55.4
644.971	55.23
645.305	55.06
645.639	55.03
645.974	54.91
646.308	54.85
646.642	54.72
646.976	54.69
647.31	54.58
647.644	54.47
647.978	54.31
648.312	54.18
648.646	54.19
648.98	54.25
649.314	54.12
649.647	54.08
649.981	54
650.315	53.87
650.648	53.74
650.982	53.57
651.315	53.45
651.649	53.49
651.982	53.44
652.316	53.29
652.649	53.19
652.982	53.13
653.315	53.06
653.648	52.98
653.982	52.93
654.315	52.88
654.648	52.8
654.981	52.79
655.313	52.72
655.646	52.64
655.979	52.62
656.312	52.45
656.644	52.4
656.977	52.37
657.31	52.19
657.642	52.03
657.975	51.82
658.307	51.75
658.64	51.62
658.972	51.44
659.304	51.26
659.636	51.09
659.969	50.98
660.301	50.85
660.633	50.65
660.965	50.66
661.297	50.63
661.629	50.65
661.961	50.54
662.292	50.4
662.624	50.31
662.956	50.31
663.288	50.31
663.619	50.31
663.951	50.33
664.282	50.3
664.614	50.2
664.945	50.08
665.276	49.95
665.608	49.87
665.939	49.87
666.27	49.79
666.601	49.64
666.933	49.5
667.264	49.37
667.595	49.23
667.926	49.07
668.256	48.98
668.587	48.92
668.918	48.83
669.249	48.82
669.58	48.62
669.91	48.45
670.241	48.37
670.571	48.27
670.902	48.22
671.232	48.08
671.563	48.01
671.893	47.91
