Data from groin3_Reflection__2__11-32-32-347.txt Node

Date: Thu Aug 04 11:32:32 AEST 2022
User: kathy
Spectrometer: JAZA2503
Trigger mode: 0
Integration Time (sec): 2.883200E-1
Scans to average: 10
Electric dark correction enabled: true
Nonlinearity correction enabled: true
Boxcar width: 5
XAxis mode: Wavelengths
Number of Pixels in Spectrum: 2048
>>>>>Begin Spectral Data<<<<<
189.467	-139.32
189.852	-315.53
190.237	-8169.52
190.622	-471.19
191.007	-169.39
191.392	-311.46
191.777	-466.26
192.162	-53.49
192.546	-135.82
192.931	-300.69
193.316	-312.08
193.701	-370.07
194.086	131.33
194.47	122.55
194.855	108.94
195.24	-986.02
195.624	-119.8
196.009	685.89
196.393	478.61
196.778	-3193.76
197.163	-375.58
197.547	-173.17
197.931	-78.98
198.316	-37.41
198.7	-20.23
199.085	-2.7
199.469	4.41
199.853	5.12
200.237	7.18
200.622	3.63
201.006	2.66
201.39	4.74
201.774	-1.7
202.158	-6.98
202.542	-10.11
202.926	-17.81
203.31	-28.07
203.694	-29.34
204.078	-35.66
204.462	-33.1
204.846	-22.33
205.23	-17.44
205.614	-19.8
205.998	-15.45
206.381	-12.76
206.765	-13.45
207.149	-10.71
207.532	-5.1
207.916	-8.48
208.3	-4.74
208.683	-4.76
209.067	-7.96
209.45	-4.87
209.834	-0.26
210.217	0.85
210.601	2.89
210.984	0.32
211.367	0.23
211.751	1.68
212.134	3.44
212.517	0.05
212.901	1.36
213.284	2.81
213.667	5.06
214.05	4.66
214.433	7.17
214.816	6.66
215.199	14.3
215.582	15.35
215.965	12.82
216.348	12.39
216.731	17.67
217.114	13.45
217.497	6.17
217.88	1.43
218.262	-0.16
218.645	-3.77
219.028	-6.85
219.411	-8.13
219.793	-6.15
220.176	-3.55
220.559	-2.99
220.941	-3.76
221.324	-1.14
221.706	3.81
222.089	3.38
222.471	5.27
222.853	3.04
223.236	4.7
223.618	2.87
224	2.65
224.383	-0.09
224.765	0.79
225.147	1.07
225.529	0.88
225.912	0.17
226.294	0.33
226.676	0.22
227.058	1.25
227.44	1.41
227.822	2.02
228.204	2.32
228.586	2.88
228.968	2.72
229.349	2.88
229.731	3.25
230.113	2.98
230.495	3.43
230.877	3.43
231.258	3.72
231.64	3.97
232.022	3.64
232.403	3.54
232.785	4
233.166	4.09
233.548	4.09
233.929	3.9
234.311	4.28
234.692	3.59
235.073	3.34
235.455	2.99
235.836	3.05
236.217	3.59
236.599	3.29
236.98	2.77
237.361	2.73
237.742	2.59
238.123	2.55
238.504	2.42
238.885	2.42
239.266	2.63
239.647	2.9
240.028	2.86
240.409	2.84
240.79	2.98
241.171	3.26
241.552	3.2
241.933	3.36
242.313	3.4
242.694	3.6
243.075	3.89
243.456	3.88
243.836	3.93
244.217	3.91
244.597	4
244.978	4.06
245.358	3.96
245.739	4.04
246.119	3.9
246.5	3.9
246.88	3.79
247.26	3.65
247.641	3.57
248.021	3.57
248.401	3.53
248.781	3.48
249.162	3.5
249.542	3.46
249.922	3.34
250.302	3.37
250.682	3.31
251.062	3.26
251.442	3.23
251.822	3.33
252.202	3.29
252.582	3.19
252.961	3.11
253.341	3.11
253.721	3.14
254.101	3.15
254.48	3.19
254.86	3.17
255.24	3.18
255.619	3.38
255.999	3.06
256.378	2.91
256.758	3.05
257.137	3.17
257.517	3.19
257.896	3.27
258.276	3.32
258.655	3.23
259.034	3.14
259.414	3.12
259.793	2.97
260.172	3.03
260.551	3.07
260.93	3.04
261.309	2.96
261.688	2.92
262.068	2.92
262.447	2.94
262.825	2.93
263.204	2.94
263.583	2.92
263.962	3.01
264.341	3.13
264.72	3.12
265.099	3.07
265.477	3.08
265.856	3.06
266.235	2.99
266.613	2.86
266.992	2.86
267.371	2.9
267.749	2.97
268.128	2.9
268.506	2.85
268.884	2.83
269.263	2.87
269.641	2.89
270.02	2.87
270.398	2.91
270.776	3.01
271.154	3.05
271.533	3.07
271.911	3.03
272.289	3.03
272.667	3.02
273.045	3.06
273.423	3.02
273.801	3
274.179	2.99
274.557	2.98
274.935	3.01
275.313	2.94
275.69	2.94
276.068	2.89
276.446	2.93
276.824	2.95
277.201	2.98
277.579	2.99
277.957	2.99
278.334	3
278.712	3.01
279.089	2.99
279.467	3.13
279.844	3.17
280.222	3.19
280.599	3.23
280.976	3.18
281.354	3.12
281.731	3.15
282.108	3.18
282.485	3.18
282.863	3.18
283.24	3.15
283.617	3.08
283.994	3.07
284.371	3.07
284.748	3.04
285.125	3.04
285.502	3.04
285.879	3.06
286.256	3.06
286.633	3.09
287.009	3.09
287.386	3.11
287.763	3.13
288.139	3.16
288.516	3.19
288.893	3.18
289.269	3.22
289.646	3.28
290.022	3.28
290.399	3.26
290.775	3.25
291.152	3.24
291.528	3.23
291.904	3.19
292.281	3.15
292.657	3.11
293.033	3.14
293.41	3.14
293.786	3.11
294.162	3.08
294.538	3.12
294.914	3.15
295.29	3.1
295.666	3.1
296.042	3.11
296.418	3.14
296.794	3.18
297.17	3.17
297.546	3.17
297.921	3.14
298.297	3.17
298.673	3.14
299.048	3.12
299.424	3.18
299.8	3.22
300.175	3.23
300.551	3.22
300.926	3.22
301.302	3.22
301.677	3.26
302.053	3.33
302.428	3.29
302.803	3.3
303.179	3.31
303.554	3.3
303.929	3.3
304.304	3.32
304.68	3.31
305.055	3.34
305.43	3.38
305.805	3.33
306.18	3.3
306.555	3.33
306.93	3.36
307.305	3.38
307.679	3.39
308.054	3.35
308.429	3.34
308.804	3.35
309.179	3.34
309.553	3.31
309.928	3.34
310.303	3.35
310.677	3.36
311.052	3.35
311.426	3.34
311.801	3.33
312.175	3.34
312.55	3.35
312.924	3.32
313.298	3.31
313.673	3.33
314.047	3.31
314.421	3.26
314.795	3.25
315.17	3.25
315.544	3.28
315.918	3.3
316.292	3.27
316.666	3.29
317.04	3.32
317.414	3.34
317.788	3.36
318.162	3.38
318.535	3.41
318.909	3.43
319.283	3.39
319.657	3.39
320.03	3.39
320.404	3.48
320.778	3.48
321.151	3.52
321.525	3.56
321.898	3.6
322.272	3.62
322.645	3.58
323.019	3.57
323.392	3.53
323.765	3.56
324.139	3.56
324.512	3.61
324.885	3.65
325.258	3.61
325.632	3.61
326.005	3.61
326.378	3.59
326.751	3.58
327.124	3.57
327.497	3.61
327.87	3.58
328.243	3.57
328.616	3.6
328.988	3.64
329.361	3.63
329.734	3.63
330.107	3.63
330.479	3.64
330.852	3.68
331.225	3.73
331.597	3.76
331.97	3.77
332.342	3.79
332.715	3.75
333.087	3.7
333.46	3.64
333.832	3.63
334.204	3.59
334.577	3.57
334.949	3.59
335.321	3.58
335.693	3.57
336.065	3.54
336.438	3.52
336.81	3.5
337.182	3.52
337.554	3.5
337.926	3.49
338.298	3.48
338.669	3.43
339.041	3.46
339.413	3.45
339.785	3.43
340.157	3.4
340.528	3.38
340.9	3.34
341.272	3.32
341.643	3.3
342.015	3.32
342.386	3.36
342.758	3.39
343.129	3.44
343.501	3.46
343.872	3.49
344.243	3.48
344.615	3.44
344.986	3.43
345.357	3.42
345.728	3.39
346.099	3.38
346.471	3.38
346.842	3.35
347.213	3.34
347.584	3.34
347.955	3.36
348.326	3.33
348.697	3.29
349.067	3.27
349.438	3.27
349.809	3.27
350.18	3.28
350.55	3.28
350.921	3.3
351.292	3.31
351.662	3.31
352.033	3.3
352.403	3.31
352.774	3.32
353.144	3.3
353.515	3.31
353.885	3.29
354.255	3.29
354.626	3.3
354.996	3.3
355.366	3.31
355.736	3.32
356.107	3.32
356.477	3.29
356.847	3.28
357.217	3.3
357.587	3.31
357.957	3.31
358.327	3.31
358.697	3.31
359.066	3.29
359.436	3.29
359.806	3.28
360.176	3.3
360.546	3.27
360.915	3.28
361.285	3.25
361.654	3.23
362.024	3.22
362.393	3.21
362.763	3.2
363.132	3.2
363.502	3.2
363.871	3.21
364.24	3.18
364.61	3.21
364.979	3.22
365.348	3.24
365.717	3.26
366.087	3.26
366.456	3.27
366.825	3.28
367.194	3.29
367.563	3.3
367.932	3.29
368.301	3.3
368.669	3.28
369.038	3.27
369.407	3.26
369.776	3.25
370.145	3.25
370.513	3.23
370.882	3.23
371.25	3.21
371.619	3.21
371.988	3.23
372.356	3.22
372.724	3.23
373.093	3.24
373.461	3.24
373.83	3.24
374.198	3.25
374.566	3.27
374.934	3.25
375.303	3.27
375.671	3.24
376.039	3.24
376.407	3.28
376.775	3.29
377.143	3.29
377.511	3.27
377.879	3.25
378.247	3.25
378.615	3.23
378.982	3.24
379.35	3.25
379.718	3.27
380.086	3.28
380.453	3.26
380.821	3.27
381.188	3.27
381.556	3.28
381.923	3.31
382.291	3.3
382.658	3.3
383.026	3.31
383.393	3.31
383.76	3.3
384.128	3.28
384.495	3.27
384.862	3.25
385.229	3.24
385.596	3.24
385.963	3.24
386.33	3.24
386.697	3.24
387.064	3.25
387.431	3.24
387.798	3.25
388.165	3.26
388.532	3.26
388.899	3.23
389.265	3.23
389.632	3.23
389.999	3.21
390.365	3.22
390.732	3.2
391.098	3.19
391.465	3.19
391.831	3.18
392.198	3.18
392.564	3.17
392.93	3.2
393.297	3.2
393.663	3.18
394.029	3.18
394.395	3.18
394.762	3.2
395.128	3.2
395.494	3.2
395.86	3.22
396.226	3.22
396.592	3.23
396.958	3.22
397.323	3.23
397.689	3.26
398.055	3.26
398.421	3.26
398.787	3.25
399.152	3.25
399.518	3.26
399.883	3.26
400.249	3.25
400.615	3.26
400.98	3.27
401.345	3.27
401.711	3.26
402.076	3.26
402.442	3.26
402.807	3.23
403.172	3.24
403.537	3.23
403.902	3.22
404.268	3.22
404.633	3.2
404.998	3.19
405.363	3.19
405.728	3.19
406.093	3.19
406.457	3.19
406.822	3.21
407.187	3.23
407.552	3.22
407.917	3.2
408.281	3.21
408.646	3.22
409.011	3.23
409.375	3.22
409.74	3.22
410.104	3.21
410.469	3.2
410.833	3.2
411.197	3.18
411.562	3.2
411.926	3.2
412.29	3.18
412.655	3.16
413.019	3.15
413.383	3.15
413.747	3.15
414.111	3.15
414.475	3.17
414.839	3.16
415.203	3.16
415.567	3.15
415.931	3.15
416.295	3.18
416.658	3.19
417.022	3.19
417.386	3.19
417.749	3.19
418.113	3.19
418.477	3.19
418.84	3.19
419.204	3.2
419.567	3.21
419.931	3.21
420.294	3.2
420.657	3.21
421.021	3.22
421.384	3.23
421.747	3.23
422.11	3.23
422.473	3.23
422.836	3.22
423.199	3.21
423.562	3.2
423.925	3.19
424.288	3.17
424.651	3.17
425.014	3.17
425.377	3.16
425.74	3.15
426.102	3.15
426.465	3.15
426.828	3.16
427.19	3.19
427.553	3.2
427.916	3.21
428.278	3.22
428.641	3.2
429.003	3.2
429.365	3.21
429.728	3.22
430.09	3.22
430.452	3.23
430.814	3.21
431.177	3.19
431.539	3.17
431.901	3.18
432.263	3.19
432.625	3.2
432.987	3.21
433.349	3.2
433.711	3.2
434.072	3.18
434.434	3.18
434.796	3.17
435.158	3.17
435.519	3.17
435.881	3.17
436.243	3.16
436.604	3.15
436.966	3.14
437.327	3.14
437.689	3.15
438.05	3.15
438.411	3.16
438.773	3.18
439.134	3.19
439.495	3.21
439.856	3.21
440.218	3.23
440.579	3.24
440.94	3.24
441.301	3.24
441.662	3.25
442.023	3.27
442.384	3.26
442.745	3.28
443.105	3.26
443.466	3.25
443.827	3.22
444.188	3.21
444.548	3.19
444.909	3.18
445.269	3.19
445.63	3.2
445.99	3.19
446.351	3.19
446.711	3.18
447.072	3.18
447.432	3.17
447.792	3.19
448.153	3.19
448.513	3.21
448.873	3.2
449.233	3.2
449.593	3.17
449.953	3.17
450.313	3.17
450.673	3.17
451.033	3.17
451.393	3.19
451.753	3.18
452.113	3.49
452.472	3.49
452.832	3.48
453.192	3.46
453.551	3.44
453.911	3.43
454.271	3.41
454.63	3.4
454.989	3.39
455.349	3.38
455.708	3.38
456.068	3.22
456.427	3.22
456.786	3.22
457.145	3.23
457.505	3.23
457.864	3.24
458.223	3.25
458.582	3.26
458.941	3.26
459.3	3.26
459.659	3.26
460.018	3.26
460.376	3.26
460.735	3.26
461.094	3.26
461.453	3.26
461.811	3.25
462.17	3.25
462.529	3.24
462.887	3.24
463.246	3.23
463.604	3.23
463.963	3.23
464.321	3.26
464.679	3.25
465.038	3.24
465.396	3.24
465.754	3.25
466.112	3.24
466.47	3.23
466.828	3.24
467.186	3.24
467.544	3.24
467.902	3.23
468.26	3.21
468.618	3.21
468.976	3.22
469.334	3.22
469.692	3.22
470.049	3.22
470.407	3.23
470.765	3.22
471.122	3.22
471.48	3.21
471.837	3.22
472.195	3.2
472.552	3.21
472.909	3.21
473.267	3.21
473.624	3.22
473.981	3.2
474.338	3.2
474.696	3.2
475.053	3.2
475.41	3.2
475.767	3.19
476.124	3.18
476.481	3.17
476.838	3.17
477.194	3.16
477.551	3.16
477.908	3.16
478.265	3.17
478.621	3.17
478.978	3.16
479.335	3.15
479.691	3.16
480.048	3.15
480.404	3.14
480.761	3.13
481.117	3.13
481.473	3.12
481.83	3.13
482.186	3.12
482.542	3.13
482.898	3.14
483.255	3.14
483.611	3.16
483.967	3.17
484.323	3.2
484.679	3.21
485.035	3.2
485.39	3.21
485.746	3.2
486.102	3.19
486.458	3.18
486.814	3.18
487.169	3.19
487.525	3.17
487.88	3.16
488.236	3.16
488.591	3.16
488.947	3.15
489.302	3.15
489.658	3.16
490.013	3.16
490.368	3.18
490.723	3.17
491.079	3.16
491.434	3.16
491.789	3.17
492.144	3.16
492.499	3.16
492.854	3.17
493.209	3.17
493.564	3.17
493.919	3.18
494.273	3.18
494.628	3.18
494.983	3.17
495.338	3.18
495.692	3.18
496.047	3.19
496.401	3.19
496.756	3.19
497.11	3.18
497.465	3.17
497.819	3.17
498.173	3.17
498.528	3.18
498.882	3.19
499.236	3.2
499.59	3.2
499.944	3.21
500.298	3.22
500.652	3.22
501.006	3.23
501.36	3.24
501.714	3.24
502.068	3.24
502.422	3.25
502.776	3.25
503.129	3.26
503.483	3.26
503.837	3.27
504.19	3.26
504.544	3.26
504.897	3.25
505.251	3.24
505.604	3.23
505.958	3.23
506.311	3.22
506.664	3.22
507.017	3.21
507.371	3.2
507.724	3.18
508.077	3.19
508.43	3.19
508.783	3.2
509.136	3.19
509.489	3.2
509.842	3.2
510.195	3.2
510.547	3.2
510.9	3.19
511.253	3.2
511.606	3.2
511.958	3.19
512.311	3.18
512.663	3.17
513.016	3.18
513.368	3.18
513.721	3.19
514.073	3.2
514.425	3.19
514.778	3.19
515.13	3.19
515.482	3.19
515.834	3.2
516.186	3.2
516.538	3.2
516.89	3.21
517.242	3.22
517.594	3.22
517.946	3.22
518.298	3.23
518.65	3.24
519.001	3.24
519.353	3.24
519.705	3.24
520.056	3.23
520.408	3.23
520.759	3.22
521.111	3.2
521.462	3.2
521.814	3.2
522.165	3.2
522.516	3.19
522.868	3.19
523.219	3.17
523.57	3.17
523.921	3.17
524.272	3.17
524.623	3.17
524.974	3.17
525.325	3.16
525.676	3.15
526.027	3.14
526.378	3.13
526.728	3.14
527.079	3.14
527.43	3.15
527.78	3.15
528.131	3.16
528.481	3.15
528.832	3.16
529.182	3.15
529.533	3.15
529.883	3.17
530.233	3.16
530.584	3.16
530.934	3.17
531.284	3.17
531.634	3.16
531.984	3.18
532.334	3.19
532.684	3.18
533.034	3.21
533.384	3.22
533.734	3.21
534.084	3.21
534.434	3.21
534.783	3.21
535.133	3.19
535.483	3.19
535.832	3.2
536.182	3.18
536.531	3.18
536.881	3.17
537.23	3.16
537.58	3.16
537.929	3.15
538.278	3.77
538.628	3.77
538.977	3.77
539.326	3.77
539.675	3.73
540.024	3.72
540.373	3.71
540.722	3.71
541.071	3.71
541.42	3.72
541.769	3.71
542.117	3.1
542.466	3.07
542.815	3.08
543.163	3.08
543.512	3.11
543.861	3.12
544.209	3.12
544.558	3.13
544.906	3.13
545.254	3.13
545.603	3.15
545.951	3.15
546.299	3.18
546.647	3.21
546.996	3.21
547.344	3.22
547.692	3.24
548.04	3.24
548.388	3.23
548.736	3.25
549.083	3.24
549.431	3.22
549.779	3.21
550.127	3.16
550.475	3.14
550.822	3.14
551.17	3.1
551.517	3.1
551.865	3.12
552.212	3.14
552.56	3.15
552.907	3.15
553.254	3.17
553.602	3.18
553.949	3.21
554.296	3.2
554.643	3.22
554.99	3.24
555.337	3.23
555.684	3.21
556.031	3.17
556.378	3.16
556.725	3.2
557.072	3.19
557.419	3.2
557.765	3.19
558.112	3.2
558.459	3.18
558.805	3.21
559.152	3.23
559.498	3.21
559.845	3.22
560.191	3.19
560.538	3.17
560.884	3.17
561.23	3.16
561.576	3.12
561.923	3.1
562.269	3.09
562.615	3.06
562.961	3.03
563.307	3.05
563.653	3.05
563.999	3.04
564.344	3.03
564.69	3.04
565.036	3.07
565.382	3.09
565.727	3.14
566.073	3.13
566.419	3.13
566.764	3.15
567.11	3.14
567.455	3.14
567.8	3.15
568.146	3.15
568.491	3.13
568.836	3.11
569.181	3.13
569.527	3.1
569.872	3.12
570.217	3.13
570.562	3.12
570.907	3.13
571.252	3.15
571.597	3.17
571.941	3.17
572.286	3.18
572.631	3.17
572.976	3.16
573.32	3.17
573.665	3.17
574.009	3.17
574.354	3.16
574.698	3.17
575.043	3.18
575.387	3.18
575.731	3.18
576.076	3.18
576.42	3.18
576.764	3.17
577.108	3.17
577.452	3.16
577.796	3.15
578.14	3.14
578.484	3.14
578.828	3.14
579.172	3.15
579.516	3.16
579.86	3.17
580.203	3.17
580.547	3.17
580.891	3.16
581.234	3.13
581.578	3.13
581.921	3.14
582.264	3.13
582.608	3.11
582.951	3.1
583.294	3.09
583.638	3.09
583.981	3.09
584.324	3.09
584.667	3.08
585.01	3.06
585.353	3.06
585.696	3.06
586.039	3.06
586.382	3.06
586.725	3.05
587.067	3.04
587.41	3.04
587.753	3.04
588.095	3.03
588.438	3.04
588.781	3.05
589.123	3.04
589.465	3.04
589.808	3.06
590.15	3.07
590.492	3.03
590.835	3.04
591.177	3.04
591.519	3.03
591.861	3.04
592.203	3.06
592.545	3.07
592.887	3.07
593.229	3.06
593.571	3.06
593.913	3.05
594.254	3.04
594.596	3.03
594.938	3.03
595.279	3.04
595.621	3.04
595.963	3.05
596.304	3.06
596.645	3.06
596.987	3.06
597.328	3.05
597.669	3.04
598.011	3.08
598.352	3.1
598.693	3.1
599.034	3.1
599.375	3.09
599.716	3.09
600.057	3.08
600.398	3.08
600.739	3.09
601.08	3.09
601.42	3.09
601.761	3.09
602.102	3.09
602.442	3.09
602.783	3.09
603.123	3.07
603.464	3.07
603.804	3.08
604.145	3.08
604.485	3.07
604.825	3.07
605.166	3.07
605.506	3.05
605.846	3.03
606.186	3.03
606.526	3.05
606.866	3.06
607.206	3.07
607.546	3.06
607.886	3.05
608.225	3.04
608.565	3.04
608.905	3.06
609.245	3.07
609.584	3.08
609.924	3.08
610.263	3.1
610.603	3.11
610.942	3.12
611.281	3.13
611.621	3.13
611.96	3.14
612.299	3.17
612.638	3.2
612.978	3.21
613.317	3.22
613.656	3.2
613.995	3.18
614.334	3.18
614.672	3.18
615.011	3.19
615.35	3.21
615.689	3.21
616.027	3.21
616.366	3.2
616.705	3.18
617.043	3.17
617.382	3.17
617.72	3.17
618.059	3.16
618.397	3.15
618.735	3.14
619.073	3.14
619.412	3.14
619.75	3.14
620.088	3.11
620.426	3.1
620.764	3.1
621.102	3.1
621.44	3.09
621.778	3.09
622.115	3.09
622.453	3.1
622.791	3.1
623.129	3.1
623.466	3.11
623.804	3.1
624.141	3.09
624.479	3.08
624.816	3.08
625.153	3.06
625.491	3.06
625.828	3.04
626.165	3.03
626.502	3.02
626.84	3.01
627.177	2.99
627.514	2.98
627.851	3.02
628.188	2.99
628.524	2.97
628.861	3
629.198	3.03
629.535	3.05
629.871	3.06
630.208	3.07
630.545	3.11
630.881	3.15
631.218	3.16
631.554	3.13
631.89	3.16
632.227	3.17
632.563	3.17
632.899	3.14
633.235	3.14
633.572	3.12
633.908	3.15
634.244	3.12
634.58	3.07
634.916	3.11
635.251	3.12
635.587	3.1
635.923	3.07
636.259	3.09
636.595	3.1
636.93	3.11
637.266	3.14
637.601	3.09
637.937	3.11
638.272	3.2
638.608	3.17
638.943	3.2
639.278	3.21
639.613	3.23
639.949	3.18
640.284	3.19
640.619	3.19
640.954	3.15
641.289	3.18
641.624	3.23
641.959	3.16
642.294	3.1
642.628	3.11
642.963	3.1
643.298	3.05
643.632	3.09
643.967	3.09
644.302	3.06
644.636	3.08
644.971	3.06
645.305	3
645.639	3.01
645.974	3.03
646.308	2.98
646.642	3
646.976	3.08
647.31	3.03
647.644	3
647.978	3.02
648.312	2.99
648.646	3.01
648.98	3.06
649.314	3.06
649.647	3.1
649.981	3.11
650.315	3.06
650.648	3.03
650.982	3.06
651.315	3.13
651.649	3.13
651.982	3.18
652.316	3.15
652.649	3.09
652.982	3.07
653.315	3.06
653.648	3.11
653.982	3.16
654.315	3.13
654.648	3.12
654.981	3.06
655.313	3.07
655.646	3.01
655.979	3.05
656.312	3.05
656.644	3.06
656.977	3.07
657.31	3.07
657.642	3.05
657.975	3.1
658.307	3.08
658.64	3.18
658.972	3.23
659.304	3.28
659.636	3.25
659.969	3.25
660.301	3.29
660.633	3.25
660.965	3.25
661.297	3.26
661.629	3.25
661.961	3.24
662.292	3.15
662.624	3.1
662.956	3.04
663.288	3.03
663.619	3.01
663.951	2.96
664.282	3
664.614	2.95
664.945	2.88
665.276	2.88
665.608	2.89
665.939	2.9
666.27	2.85
666.601	2.88
666.933	2.89
667.264	2.94
667.595	2.94
667.926	2.9
668.256	2.88
668.587	2.91
668.918	2.95
669.249	2.92
669.58	2.91
669.91	2.92
670.241	2.97
670.571	2.99
670.902	3.02
671.232	3.01
671.563	3.02
671.893	3.01
672.223	3.05
672.554	2.97
672.884	3.06
673.214	3.08
673.544	3.17
673.874	3.13
674.204	3.18
674.534	3.07
674.864	3.14
675.194	3.14
675.524	3.24
675.853	3.23
676.183	3.28
676.513	3.24
676.842	3.28
677.172	3.21
677.501	3.24
677.831	3.21
678.16	3.22
678.489	3.22
678.819	3.26
679.148	3.23
679.477	3.19
679.806	3.12
680.135	3.09
680.464	3.04
680.793	3.04
681.122	2.99
681.451	2.93
681.78	2.99
682.108	2.94
682.437	2.9
682.766	2.81
683.094	2.81
683.423	2.79
683.751	2.76
684.08	2.74
684.408	2.72
684.737	2.72
685.065	2.69
685.393	2.65
685.721	2.64
686.049	2.64
686.377	2.72
686.705	2.74
687.033	2.81
687.361	2.91
687.689	3.02
688.017	3.08
688.345	3.05
688.673	3.13
689.0	3.1
689.328	3.12
689.655	3.14
689.983	3.14
690.31	3.23
690.638	3.16
690.965	3.11
691.292	3
691.62	3
691.947	3.08
692.274	3.03
692.601	3.06
692.928	3.12
693.255	3.1
693.582	3.02
693.909	2.87
694.236	2.98
694.562	2.98
694.889	2.97
695.216	3.01
695.542	2.99
695.869	3.09
