Data from groin3_Reflection__2__12-31-04-435.txt Node

Date: Thu Aug 04 12:31:04 AEST 2022
User: kathy
Spectrometer: JAZA2503
Trigger mode: 0
Integration Time (sec): 2.883200E-1
Scans to average: 10
Electric dark correction enabled: true
Nonlinearity correction enabled: true
Boxcar width: 5
XAxis mode: Wavelengths
Number of Pixels in Spectrum: 2048
>>>>>Begin Spectral Data<<<<<
189.467	-141.44
189.852	-288.89
190.237	-8007.88
190.622	-453
191.007	-135.82
191.392	-208.86
191.777	-221.89
192.162	0.55
192.546	-119.94
192.931	-213.09
193.316	-214.53
193.701	-401.65
194.086	215.21
194.47	155.66
194.855	271.15
195.24	5325.1
195.624	200.29
196.009	168.6
196.393	99.26
196.778	-200.53
197.163	66.23
197.547	60.29
197.931	49.87
198.316	46.42
198.7	47.59
199.085	41.34
199.469	30.85
199.853	33.01
200.237	35.87
200.622	35.68
201.006	25.98
201.39	24.05
201.774	23.5
202.158	27.14
202.542	27.03
202.926	17.17
203.31	10.84
203.694	18.06
204.078	11.42
204.462	12.36
204.846	11.17
205.23	7.85
205.614	6.02
205.998	-2.68
206.381	-1.79
206.765	-1.36
207.149	10.22
207.532	22.39
207.916	19.7
208.3	24.36
208.683	23.13
209.067	23.28
209.45	28.45
209.834	33.62
210.217	36.5
210.601	34.8
210.984	36.07
211.367	41.7
211.751	37.08
212.134	35.48
212.517	31.84
212.901	37.62
213.284	37.05
213.667	38.5
214.05	35.56
214.433	35.8
214.816	33.58
215.199	35.25
215.582	28.62
215.965	23.83
216.348	22.75
216.731	27.98
217.114	21.01
217.497	19.23
217.88	19.57
218.262	19.29
218.645	20.03
219.028	18
219.411	12.66
219.793	13.4
220.176	15.84
220.559	14.25
220.941	9.27
221.324	6.96
221.706	6.8
222.089	5.02
222.471	6.05
222.853	4.1
223.236	5.9
223.618	7.06
224	8.11
224.383	6.71
224.765	8.43
225.147	11.1
225.529	12.44
225.912	12.28
226.294	11.34
226.676	9.84
227.058	8.88
227.44	7.68
227.822	6.47
228.204	5.13
228.586	5.08
228.968	4.73
229.349	3.99
229.731	3.93
230.113	3.32
230.495	3.31
230.877	3.11
231.258	3.37
231.64	3.3
232.022	2.93
232.403	2.86
232.785	3.33
233.166	3.33
233.548	3.12
233.929	2.7
234.311	3.04
234.692	2.71
235.073	3.12
235.455	3.19
235.836	3.45
236.217	3.92
236.599	3.67
236.98	2.98
237.361	2.61
237.742	2.61
238.123	3.11
238.504	3.07
238.885	3.08
239.266	2.9
239.647	2.64
240.028	2.44
240.409	2.24
240.79	2.69
241.171	2.68
241.552	2.65
241.933	2.53
242.313	2.23
242.694	2.27
243.075	2.38
243.456	2.26
243.836	2.37
244.217	2.32
244.597	2.37
244.978	2.27
245.358	2.31
245.739	2.26
246.119	2.23
246.5	2.29
246.88	2.17
247.26	2.07
247.641	2.04
248.021	2.02
248.401	2.01
248.781	1.97
249.162	1.95
249.542	1.93
249.922	1.95
250.302	2.02
250.682	1.94
251.062	2.01
251.442	1.93
251.822	1.97
252.202	1.93
252.582	1.97
252.961	1.94
253.341	1.94
253.721	1.93
254.101	1.95
254.48	1.86
254.86	1.82
255.24	1.89
255.619	2.15
255.999	2.02
256.378	1.96
256.758	1.93
257.137	1.95
257.517	1.86
257.896	1.85
258.276	1.79
258.655	1.74
259.034	1.71
259.414	1.58
259.793	1.44
260.172	1.44
260.551	1.42
260.93	1.37
261.309	1.33
261.688	1.36
262.068	1.35
262.447	1.39
262.825	1.34
263.204	1.33
263.583	1.38
263.962	1.47
264.341	1.53
264.72	1.6
265.099	1.61
265.477	1.69
265.856	1.58
266.235	1.53
266.613	1.31
266.992	1.35
267.371	1.4
267.749	1.44
268.128	1.41
268.506	1.37
268.884	1.31
269.263	1.28
269.641	1.27
270.02	1.29
270.398	1.28
270.776	1.39
271.154	1.44
271.533	1.42
271.911	1.26
272.289	1.21
272.667	1.25
273.045	1.22
273.423	1.31
273.801	1.26
274.179	1.28
274.557	1.27
274.935	1.3
275.313	1.24
275.69	1.2
276.068	1.27
276.446	1.3
276.824	1.27
277.201	1.29
277.579	1.19
277.957	1.22
278.334	1.16
278.712	1.15
279.089	1.06
279.467	1.12
279.844	1.19
280.222	1.16
280.599	1.19
280.976	1.13
281.354	1.1
281.731	1.16
282.108	1.21
282.485	1.23
282.863	1.27
283.24	1.3
283.617	1.26
283.994	1.22
284.371	1.25
284.748	1.22
285.125	1.26
285.502	1.28
285.879	1.26
286.256	1.23
286.633	1.29
287.009	1.32
287.386	1.36
287.763	1.42
288.139	1.43
288.516	1.47
288.893	1.49
289.269	1.52
289.646	1.6
290.022	1.63
290.399	1.65
290.775	1.66
291.152	1.67
291.528	1.67
291.904	1.69
292.281	1.71
292.657	1.73
293.033	1.76
293.41	1.83
293.786	1.86
294.162	1.92
294.538	2.01
294.914	2.08
295.29	2.13
295.666	2.22
296.042	2.29
296.418	2.39
296.794	2.48
297.17	2.54
297.546	2.61
297.921	2.67
298.297	2.77
298.673	2.85
299.048	2.92
299.424	3.01
299.8	3.1
300.175	3.21
300.551	3.3
300.926	3.38
301.302	3.5
301.677	3.58
302.053	3.7
302.428	3.73
302.803	3.8
303.179	3.9
303.554	3.98
303.929	4.08
304.304	4.15
304.68	4.24
305.055	4.33
305.43	4.43
305.805	4.5
306.18	4.56
306.555	4.67
306.93	4.75
307.305	4.78
307.679	4.83
308.054	4.82
308.429	4.82
308.804	4.83
309.179	4.85
309.553	4.85
309.928	4.88
310.303	4.9
310.677	4.94
311.052	4.96
311.426	5.03
311.801	5.07
312.175	5.15
312.55	5.23
312.924	5.26
313.298	5.3
313.673	5.37
314.047	5.42
314.421	5.46
314.795	5.53
315.17	5.58
315.544	5.63
315.918	5.69
316.292	5.74
316.666	5.82
317.04	5.94
317.414	6.07
317.788	6.16
318.162	6.26
318.535	6.43
318.909	6.56
319.283	6.7
319.657	6.81
320.03	6.97
320.404	7.19
320.778	7.53
321.151	8.02
321.525	8.55
321.898	9.14
322.272	9.88
322.645	10.59
323.019	11.4
323.392	12.27
323.765	13.35
324.139	14.41
324.512	15.49
324.885	16.61
325.258	17.68
325.632	18.53
326.005	19.3
326.378	19.92
326.751	20.48
327.124	20.86
327.497	21.14
327.87	21.37
328.243	21.6
328.616	21.76
328.988	21.87
329.361	21.94
329.734	21.95
330.107	21.92
330.479	21.85
330.852	21.76
331.225	21.68
331.597	21.49
331.97	21.37
332.342	21.12
332.715	20.94
333.087	20.69
333.46	20.5
333.832	20.4
334.204	20.29
334.577	20.27
334.949	20.17
335.321	20.04
335.693	19.91
336.065	19.74
336.438	19.56
336.81	19.37
337.182	19.24
337.554	19.1
337.926	18.96
338.298	18.84
338.669	18.67
339.041	18.56
339.413	18.52
339.785	18.43
340.157	18.36
340.528	18.29
340.9	18.23
341.272	18.16
341.643	18.15
342.015	18.2
342.386	18.35
342.758	18.54
343.129	18.73
343.501	18.91
343.872	19.03
344.243	19.12
344.615	19.09
344.986	19.08
345.357	19.09
345.728	19.15
346.099	19.13
346.471	19.14
346.842	19.16
347.213	19.16
347.584	19.23
347.955	19.23
348.326	19.26
348.697	19.29
349.067	19.33
349.438	19.38
349.809	19.48
350.18	19.69
350.55	19.78
350.921	19.87
351.292	20.01
351.662	20.11
352.033	20.23
352.403	20.34
352.774	20.42
353.144	20.47
353.515	20.5
353.885	20.56
354.255	20.57
354.626	20.61
354.996	20.66
355.366	20.69
355.736	20.69
356.107	20.69
356.477	20.72
356.847	20.72
357.217	20.79
357.587	20.87
357.957	20.94
358.327	21.04
358.697	21.07
359.066	21.12
359.436	21.19
359.806	21.26
360.176	21.36
360.546	21.43
360.915	21.49
361.285	21.54
361.654	21.57
362.024	21.61
362.393	21.65
362.763	21.72
363.132	21.78
363.502	21.85
363.871	21.89
364.24	21.94
364.61	22.03
364.979	22.13
365.348	22.23
365.717	22.38
366.087	22.47
366.456	22.57
366.825	22.7
367.194	22.82
367.563	22.94
367.932	23.1
368.301	23.25
368.669	23.38
369.038	23.49
369.407	23.64
369.776	23.73
370.145	23.87
370.513	23.99
370.882	24.11
371.25	24.25
371.619	24.39
371.988	24.51
372.356	24.66
372.724	24.81
373.093	24.95
373.461	25.11
373.83	25.26
374.198	25.41
374.566	25.59
374.934	25.71
375.303	25.86
375.671	26.02
376.039	26.19
376.407	26.37
376.775	26.56
377.143	26.76
377.511	26.93
377.879	27.14
378.247	27.38
378.615	27.58
378.982	27.84
379.35	28.06
379.718	28.27
380.086	28.47
380.453	28.63
380.821	28.82
381.188	29.02
381.556	29.21
381.923	29.41
382.291	29.58
382.658	29.76
383.026	29.94
383.393	30.16
383.76	30.37
384.128	30.6
384.495	30.84
384.862	31.02
385.229	31.23
385.596	31.45
385.963	31.65
386.33	31.82
386.697	32
387.064	32.17
387.431	32.31
387.798	32.48
388.165	32.63
388.532	32.76
388.899	32.88
389.265	33.02
389.632	33.16
389.999	33.27
390.365	33.42
390.732	33.52
391.098	33.62
391.465	33.73
391.831	33.83
392.198	33.96
392.564	34.08
392.93	34.19
393.297	34.31
393.663	34.42
394.029	34.55
394.395	34.7
394.762	34.85
395.128	35
395.494	35.15
395.86	35.28
396.226	35.38
396.592	35.52
396.958	35.67
397.323	35.78
397.689	35.92
398.055	36.05
398.421	36.16
398.787	36.32
399.152	36.45
399.518	36.56
399.883	36.69
400.249	36.81
400.615	36.93
400.98	37.03
401.345	37.13
401.711	37.2
402.076	37.28
402.442	37.36
402.807	37.38
403.172	37.46
403.537	37.5
403.902	37.53
404.268	37.61
404.633	37.64
404.998	37.67
405.363	37.72
405.728	37.79
406.093	37.82
406.457	37.87
406.822	37.96
407.187	38
407.552	38.1
407.917	38.19
408.281	38.25
408.646	38.33
409.011	38.44
409.375	38.46
409.74	38.5
410.104	38.54
410.469	38.58
410.833	38.58
411.197	38.61
411.562	38.62
411.926	38.64
412.29	38.69
412.655	38.73
413.019	38.74
413.383	38.81
413.747	38.89
414.111	39.02
414.475	39.1
414.839	39.22
415.203	39.34
415.567	39.41
415.931	39.51
416.295	39.58
416.658	39.64
417.022	39.7
417.386	39.76
417.749	39.77
418.113	39.78
418.477	39.82
418.84	39.86
419.204	39.87
419.567	39.91
419.931	39.94
420.294	39.99
420.657	40.07
421.021	40.14
421.384	40.21
421.747	40.31
422.11	40.39
422.473	40.46
422.836	40.49
423.199	40.51
423.562	40.56
423.925	40.62
424.288	40.64
424.651	40.68
425.014	40.7
425.377	40.73
425.74	40.77
426.102	40.81
426.465	40.86
426.828	40.92
427.19	40.98
427.553	41.04
427.916	41.05
428.278	41.09
428.641	41.09
429.003	41.11
429.365	41.12
429.728	41.11
430.09	41.05
430.452	40.99
430.814	40.95
431.177	40.95
431.539	40.95
431.901	40.99
432.263	41.05
432.625	41.06
432.987	41.14
433.349	41.24
433.711	41.36
434.072	41.53
434.434	41.71
434.796	41.89
435.158	42.07
435.519	42.2
435.881	42.28
436.243	42.38
436.604	42.48
436.966	42.55
437.327	42.59
437.689	42.57
438.05	42.52
438.411	42.52
438.773	42.49
439.134	42.46
439.495	42.46
439.856	42.49
440.218	42.52
440.579	42.6
440.94	42.65
441.301	42.74
441.662	42.81
442.023	42.94
442.384	42.98
442.745	43.07
443.105	43.13
443.466	43.18
443.827	43.21
444.188	43.25
444.548	43.25
444.909	43.25
445.269	43.24
445.63	43.26
445.99	43.23
446.351	43.29
446.711	43.29
447.072	43.33
447.432	43.38
447.792	43.43
448.153	43.45
448.513	43.49
448.873	43.5
449.233	43.5
449.593	43.51
449.953	43.54
450.313	43.55
450.673	43.55
451.033	43.51
451.393	43.5
451.753	43.49
452.113	43.98
452.472	43.94
452.832	43.91
453.192	43.86
453.551	43.81
453.911	43.77
454.271	43.73
454.63	43.71
454.989	43.71
455.349	43.72
455.708	43.7
456.068	43.42
456.427	43.44
456.786	43.49
457.145	43.55
457.505	43.63
457.864	43.75
458.223	43.9
458.582	44.07
458.941	44.24
459.3	44.37
459.659	44.46
460.018	44.56
460.376	44.61
460.735	44.63
461.094	44.64
461.453	44.64
461.811	44.6
462.17	44.56
462.529	44.51
462.887	44.4
463.246	44.34
463.604	44.32
463.963	44.29
464.321	44.37
464.679	44.36
465.038	44.37
465.396	44.39
465.754	44.45
466.112	44.48
466.47	44.51
466.828	44.59
467.186	44.65
467.544	44.7
467.902	44.73
468.26	44.63
468.618	44.67
468.976	44.65
469.334	44.63
469.692	44.55
470.049	44.45
470.407	44.31
470.765	44.2
471.122	44.15
471.48	44.13
471.837	44.18
472.195	44.26
472.552	44.32
472.909	44.38
473.267	44.43
473.624	44.51
473.981	44.6
474.338	44.65
474.696	44.73
475.053	44.73
475.41	44.75
475.767	44.73
476.124	44.7
476.481	44.67
476.838	44.68
477.194	44.67
477.551	44.65
477.908	44.65
478.265	44.68
478.621	44.68
478.978	44.71
479.335	44.73
479.691	44.77
480.048	44.77
480.404	44.78
480.761	44.8
481.117	44.83
481.473	44.86
481.83	44.87
482.186	44.86
482.542	44.87
482.898	44.91
483.255	44.94
483.611	44.93
483.967	44.95
484.323	45.01
484.679	45.01
485.035	45.05
485.39	45.06
485.746	45.12
486.102	45.13
486.458	45.15
486.814	45.14
487.169	45.13
487.525	45.16
487.88	45.14
488.236	45.15
488.591	45.18
488.947	45.13
489.302	45.1
489.658	45.05
490.013	45
490.368	44.94
490.723	44.9
491.079	44.89
491.434	44.89
491.789	44.89
492.144	44.87
492.499	44.85
492.854	44.85
493.209	44.89
493.564	44.91
493.919	44.99
494.273	45.03
494.628	45.03
494.983	45.02
495.338	44.99
495.692	44.98
496.047	44.9
496.401	44.84
496.756	44.78
497.11	44.67
497.465	44.59
497.819	44.48
498.173	44.38
498.528	44.34
498.882	44.33
499.236	44.32
499.59	44.32
499.944	44.38
500.298	44.42
500.652	44.43
501.006	44.46
501.36	44.48
501.714	44.48
502.068	44.5
502.422	44.5
502.776	44.5
503.129	44.52
503.483	44.55
503.837	44.55
504.19	44.57
504.544	44.57
504.897	44.54
505.251	44.49
505.604	44.42
505.958	44.36
506.311	44.28
506.664	44.15
507.017	43.97
507.371	43.79
507.724	43.62
508.077	43.45
508.43	43.31
508.783	43.2
509.136	43.14
509.489	43.08
509.842	43.03
510.195	42.93
510.547	42.87
510.9	42.81
511.253	42.73
511.606	42.62
511.958	42.48
512.311	42.32
512.663	42.15
513.016	41.97
513.368	41.83
513.721	41.69
514.073	41.56
514.425	41.44
514.778	41.35
515.13	41.27
515.482	41.18
515.834	41.13
516.186	41.09
516.538	41.09
516.89	41.11
517.242	41.12
517.594	41.12
517.946	41.14
518.298	41.15
518.65	41.11
519.001	41.05
519.353	41.01
519.705	40.91
520.056	40.82
520.408	40.64
520.759	40.5
521.111	40.34
521.462	40.25
521.814	40.15
522.165	40.04
522.516	39.96
522.868	39.89
523.219	39.76
523.57	39.64
523.921	39.51
524.272	39.41
524.623	39.24
524.974	39.13
525.325	38.93
525.676	38.78
526.027	38.63
526.378	38.49
526.728	38.35
527.079	38.26
527.43	38.18
527.78	38.12
528.131	38.04
528.481	37.97
528.832	37.89
529.182	37.84
529.533	37.77
529.883	37.69
530.233	37.61
530.584	37.53
530.934	37.44
531.284	37.31
531.634	37.17
531.984	37.05
532.334	36.92
532.684	36.79
533.034	36.67
533.384	36.5
533.734	36.4
534.084	36.29
534.434	36.19
534.783	36.06
535.133	35.93
535.483	35.84
535.832	35.75
536.182	35.63
536.531	35.54
536.881	35.46
537.23	35.36
537.58	35.22
537.929	35.09
538.278	36.3
538.628	36.15
538.977	36.05
539.326	35.93
539.675	35.79
540.024	35.72
540.373	35.6
540.722	35.46
541.071	35.39
541.42	35.3
541.769	35.21
542.117	33.75
542.466	33.68
542.815	33.59
543.163	33.49
543.512	33.42
543.861	33.33
544.209	33.23
544.558	33.13
544.906	33.01
545.254	32.89
545.603	32.8
545.951	32.72
546.299	32.68
546.647	32.61
546.996	32.55
547.344	32.46
547.692	32.39
548.04	32.31
548.388	32.23
548.736	32.17
549.083	32.09
549.431	31.97
549.779	31.88
550.127	31.75
550.475	31.66
550.822	31.5
551.17	31.38
551.517	31.29
551.865	31.19
552.212	31.13
552.56	31.03
552.907	30.95
553.254	30.89
553.602	30.79
553.949	30.68
554.296	30.54
554.643	30.45
554.99	30.36
555.337	30.2
555.684	30.06
556.031	29.91
556.378	29.8
556.725	29.68
557.072	29.58
557.419	29.5
557.765	29.42
558.112	29.34
558.459	29.23
558.805	29.13
559.152	29.06
559.498	28.99
559.845	28.87
560.191	28.78
560.538	28.72
560.884	28.59
561.23	28.46
561.576	28.32
561.923	28.18
562.269	28.09
562.615	27.98
562.961	27.88
563.307	27.79
563.653	27.76
563.999	27.63
564.344	27.53
564.69	27.52
565.036	27.45
565.382	27.4
565.727	27.36
566.073	27.24
566.419	27.15
566.764	27.06
567.11	26.96
567.455	26.81
567.8	26.74
568.146	26.64
568.491	26.5
568.836	26.39
569.181	26.27
569.527	26.17
569.872	26.13
570.217	26.06
570.562	25.98
570.907	25.94
571.252	25.91
571.597	25.85
571.941	25.77
572.286	25.7
572.631	25.7
572.976	25.63
573.32	25.6
573.665	25.58
574.009	25.55
574.354	25.5
574.698	25.44
575.043	25.43
575.387	25.39
575.731	25.38
576.076	25.36
576.42	25.33
576.764	25.24
577.108	25.21
577.452	25.12
577.796	25.08
578.14	24.98
578.484	24.98
578.828	24.93
579.172	24.9
579.516	24.86
579.86	24.76
580.203	24.73
580.547	24.64
580.891	24.55
581.234	24.55
581.578	24.51
581.921	24.46
582.264	24.44
582.608	24.35
582.951	24.29
583.294	24.24
583.638	24.19
583.981	24.14
584.324	24.13
584.667	24.08
585.01	24.06
585.353	24.03
585.696	23.99
586.039	23.98
586.382	23.95
586.725	23.93
587.067	23.93
587.41	23.93
587.753	23.93
588.095	23.92
588.438	23.87
588.781	23.86
589.123	23.85
589.465	23.83
589.808	23.83
590.15	23.82
590.492	23.78
590.835	23.77
591.177	23.72
591.519	23.68
591.861	23.63
592.203	23.61
592.545	23.58
592.887	23.56
593.229	23.47
593.571	23.43
593.913	23.4
594.254	23.34
594.596	23.27
594.938	23.24
595.279	23.19
595.621	23.13
595.963	23.12
596.304	23.09
596.645	23.06
596.987	23.02
597.328	22.95
597.669	22.93
598.011	22.9
598.352	22.88
598.693	22.88
599.034	22.86
599.375	22.85
599.716	22.84
600.057	22.81
600.398	22.79
600.739	22.77
601.08	22.77
601.42	22.76
601.761	22.75
602.102	22.74
602.442	22.72
602.783	22.69
603.123	22.68
603.464	22.64
603.804	22.57
604.145	22.55
604.485	22.51
604.825	22.48
605.166	22.43
605.506	22.42
605.846	22.4
606.186	22.36
606.526	22.33
606.866	22.3
607.206	22.22
607.546	22.2
607.886	22.11
608.225	22.07
608.565	22.05
608.905	21.96
609.245	21.94
609.584	21.86
609.924	21.79
610.263	21.76
610.603	21.74
610.942	21.72
611.281	21.7
611.621	21.63
611.96	21.59
612.299	21.56
612.638	21.52
612.978	21.48
613.317	21.42
613.656	21.32
613.995	21.3
614.334	21.23
614.672	21.21
615.011	21.16
615.35	21.14
615.689	21.07
616.027	21.07
616.366	21.02
616.705	21.01
617.043	21
617.382	20.99
617.72	20.98
618.059	20.92
618.397	20.84
618.735	20.8
619.073	20.78
619.412	20.75
619.75	20.71
620.088	20.65
620.426	20.59
620.764	20.55
621.102	20.54
621.44	20.51
621.778	20.5
622.115	20.48
622.453	20.46
622.791	20.41
623.129	20.4
623.466	20.33
623.804	20.31
624.141	20.28
624.479	20.25
624.816	20.2
625.153	20.19
625.491	20.17
625.828	20.17
626.165	20.15
626.502	20.1
626.84	20.09
627.177	20.07
627.514	20.02
627.851	19.98
628.188	19.89
628.524	19.83
628.861	19.8
629.198	19.73
629.535	19.69
629.871	19.62
630.208	19.54
630.545	19.5
630.881	19.45
631.218	19.46
631.554	19.41
631.89	19.37
632.227	19.34
632.563	19.27
632.899	19.24
633.235	19.24
633.572	19.16
633.908	19.14
634.244	19.13
634.58	19.05
634.916	18.96
635.251	18.96
635.587	18.98
635.923	18.94
636.259	18.91
636.595	18.84
636.93	18.77
637.266	18.77
637.601	18.72
637.937	18.62
638.272	18.64
638.608	18.58
638.943	18.5
639.278	18.44
639.613	18.42
639.949	18.4
640.284	18.37
640.619	18.35
640.954	18.27
641.289	18.23
641.624	18.21
641.959	18.1
642.294	18.01
642.628	17.97
642.963	17.85
643.298	17.7
643.632	17.72
643.967	17.66
644.302	17.51
644.636	17.49
644.971	17.41
645.305	17.31
645.639	17.31
645.974	17.28
646.308	17.15
646.642	17.13
646.976	17.2
647.31	17.05
647.644	16.99
647.978	16.98
648.312	16.91
648.646	16.93
648.98	16.95
649.314	16.88
649.647	16.89
649.981	16.88
650.315	16.8
650.648	16.71
650.982	16.66
651.315	16.65
651.649	16.62
651.982	16.6
652.316	16.51
652.649	16.44
652.982	16.43
653.315	16.42
653.648	16.42
653.982	16.43
654.315	16.36
654.648	16.28
654.981	16.19
655.313	16.18
655.646	16.16
655.979	16.14
656.312	16.11
656.644	16.12
656.977	16.07
657.31	16.03
657.642	15.98
657.975	15.97
658.307	15.96
658.64	16
658.972	16
659.304	15.94
659.636	15.91
659.969	15.89
660.301	15.81
660.633	15.78
660.965	15.77
661.297	15.74
661.629	15.75
661.961	15.76
662.292	15.68
662.624	15.58
662.956	15.59
663.288	15.62
663.619	15.55
663.951	15.54
664.282	15.5
664.614	15.41
664.945	15.36
665.276	15.28
665.608	15.19
665.939	15.16
666.27	15.18
666.601	15.02
666.933	14.97
667.264	14.99
667.595	14.9
667.926	14.89
668.256	14.85
668.587	14.86
668.918	14.85
669.249	14.87
669.58	14.87
669.91	14.84
670.241	14.91
670.571	14.87
670.902	14.86
671.232	14.85
671.563	14.76
671.893	14.77
