Data from groin2_Reflection__1__15-06-56-649.txt Node

Date: Thu Aug 04 15:06:56 AEST 2022
User: kathy
Spectrometer: JAZA2503
Trigger mode: 0
Integration Time (sec): 2.439700E-1
Scans to average: 10
Electric dark correction enabled: true
Nonlinearity correction enabled: true
Boxcar width: 5
XAxis mode: Wavelengths
Number of Pixels in Spectrum: 2048
>>>>>Begin Spectral Data<<<<<
189.467	397.39
189.852	203.29
190.237	239.5
190.622	201.11
191.007	216.02
191.392	114.64
191.777	55.35
192.162	36.08
192.546	111.92
192.931	-114.8
193.316	312.9
193.701	479.44
194.086	169.88
194.47	203.72
194.855	-4557.09
195.24	-344.96
195.624	219.43
196.009	110.46
196.393	198.82
196.778	463.69
197.163	129.66
197.547	51.85
197.931	25.87
198.316	26.76
198.7	20.16
199.085	29.35
199.469	30.63
199.853	20.84
200.237	15.57
200.622	6.11
201.006	8.51
201.39	10.25
201.774	10.29
202.158	17.63
202.542	16.88
202.926	8.89
203.31	-9.39
203.694	-12.07
204.078	0.89
204.462	9.68
204.846	9.1
205.23	10.83
205.614	9.31
205.998	14.11
206.381	13.91
206.765	16.71
207.149	19.32
207.532	26.57
207.916	24.09
208.3	20.45
208.683	17.68
209.067	25.05
209.45	18.11
209.834	21.47
210.217	19.11
210.601	15.66
210.984	15.5
211.367	15.55
211.751	10.79
212.134	12.64
212.517	13.36
212.901	11.24
213.284	12.09
213.667	17.99
214.05	16.3
214.433	12.7
214.816	13.76
215.199	14.04
215.582	16.51
215.965	15.19
216.348	17.73
216.731	17.55
217.114	13.28
217.497	10.27
217.88	8.79
218.262	4.88
218.645	10.02
219.028	8.04
219.411	4.45
219.793	6.16
220.176	6.63
220.559	3.22
220.941	3.32
221.324	7.87
221.706	10.01
222.089	10.72
222.471	12.27
222.853	9.14
223.236	8.24
223.618	7.71
224	4.45
224.383	5.49
224.765	5.86
225.147	6.12
225.529	4.88
225.912	1.8
226.294	-0.06
226.676	-1.37
227.058	-0.86
227.44	-0.91
227.822	0.34
228.204	1.36
228.586	1.44
228.968	2.05
229.349	1.83
229.731	2.2
230.113	2.37
230.495	2.99
230.877	3.22
231.258	3.4
231.64	3.63
232.022	2.96
232.403	2.92
232.785	2.88
233.166	2.46
233.548	2.03
233.929	1.77
234.311	1.73
234.692	1.56
235.073	1.92
235.455	2.09
235.836	2.49
236.217	2.99
236.599	3.03
236.98	3.42
237.361	3.34
237.742	3.43
238.123	3.41
238.504	3.5
238.885	3.4
239.266	3.24
239.647	3.03
240.028	2.65
240.409	2.42
240.79	2.5
241.171	2.1
241.552	2.18
241.933	2.25
242.313	2.45
242.694	2.56
243.075	2.51
243.456	2.38
243.836	2.4
244.217	2.58
244.597	2.66
244.978	2.45
245.358	2.59
245.739	2.57
246.119	2.65
246.5	2.53
246.88	2.44
247.26	2.32
247.641	2.29
248.021	2.27
248.401	2.19
248.781	2.19
249.162	2.31
249.542	2.28
249.922	2.22
250.302	2.24
250.682	2.12
251.062	2.08
251.442	2.13
251.822	2.26
252.202	2.39
252.582	2.29
252.961	2.38
253.341	2.34
253.721	2.41
254.101	2.45
254.48	2.42
254.86	2.65
255.24	2.82
255.619	2.79
255.999	2.61
256.378	2.3
256.758	2.44
257.137	2.27
257.517	2.2
257.896	2.05
258.276	1.98
258.655	1.76
259.034	1.55
259.414	1.46
259.793	1.48
260.172	1.48
260.551	1.48
260.93	1.29
261.309	1.31
261.688	1.25
262.068	1.27
262.447	1.27
262.825	1.21
263.204	1.17
263.583	1.08
263.962	1.05
264.341	1.12
264.72	1.15
265.099	1.39
265.477	1.41
265.856	1.32
266.235	1.31
266.613	1.26
266.992	1.31
267.371	1.34
267.749	1.43
268.128	1.33
268.506	1.3
268.884	1.37
269.263	1.28
269.641	1.18
270.02	1.28
270.398	1.27
270.776	1.32
271.154	1.41
271.533	1.46
271.911	1.4
272.289	1.45
272.667	1.42
273.045	1.39
273.423	1.43
273.801	1.47
274.179	1.48
274.557	1.56
274.935	1.48
275.313	1.46
275.69	1.48
276.068	1.56
276.446	1.53
276.824	1.48
277.201	1.47
277.579	1.5
277.957	1.48
278.334	1.41
278.712	1.35
279.089	1.38
279.467	1.33
279.844	1.29
280.222	1.2
280.599	1.21
280.976	1.3
281.354	1.23
281.731	1.17
282.108	1.16
282.485	1.15
282.863	1.18
283.24	1.2
283.617	1.23
283.994	1.23
284.371	1.24
284.748	1.27
285.125	1.26
285.502	1.31
285.879	1.32
286.256	1.35
286.633	1.41
287.009	1.45
287.386	1.47
287.763	1.51
288.139	1.54
288.516	1.64
288.893	1.68
289.269	1.74
289.646	1.8
290.022	1.86
290.399	1.93
290.775	1.94
291.152	1.97
291.528	2.02
291.904	2.05
292.281	2.09
292.657	2.11
293.033	2.13
293.41	2.14
293.786	2.17
294.162	2.21
294.538	2.2
294.914	2.29
295.29	2.33
295.666	2.37
296.042	2.43
296.418	2.53
296.794	2.58
297.17	2.69
297.546	2.75
297.921	2.81
298.297	2.88
298.673	2.95
299.048	2.99
299.424	3.06
299.8	3.15
300.175	3.22
300.551	3.28
300.926	3.35
301.302	3.39
301.677	3.46
302.053	3.54
302.428	3.59
302.803	3.64
303.179	3.73
303.554	3.75
303.929	3.78
304.304	3.83
304.68	3.86
305.055	3.92
305.43	3.93
305.805	4
306.18	4.02
306.555	4.05
306.93	4.13
307.305	4.15
307.679	4.19
308.054	4.21
308.429	4.19
308.804	4.19
309.179	4.19
309.553	4.22
309.928	4.21
310.303	4.25
310.677	4.3
311.052	4.29
311.426	4.34
311.801	4.36
312.175	4.38
312.55	4.47
312.924	4.51
313.298	4.54
313.673	4.57
314.047	4.61
314.421	4.66
314.795	4.68
315.17	4.72
315.544	4.74
315.918	4.76
316.292	4.84
316.666	4.86
317.04	4.92
317.414	4.97
317.788	5.02
318.162	5.09
318.535	5.14
318.909	5.2
319.283	5.31
319.657	5.39
320.03	5.5
320.404	5.6
320.778	5.84
321.151	6.03
321.525	6.31
321.898	6.64
322.272	6.92
322.645	7.19
323.019	7.47
323.392	7.83
323.765	8.22
324.139	8.59
324.512	9.03
324.885	9.47
325.258	9.89
325.632	10.18
326.005	10.44
326.378	10.64
326.751	10.75
327.124	10.82
327.497	10.83
327.87	10.91
328.243	10.89
328.616	10.93
328.988	10.98
329.361	11
329.734	10.94
330.107	10.87
330.479	10.81
330.852	10.74
331.225	10.73
331.597	10.66
331.97	10.53
332.342	10.44
332.715	10.32
333.087	10.17
333.46	10.05
333.832	9.99
334.204	9.97
334.577	9.93
334.949	9.9
335.321	9.84
335.693	9.74
336.065	9.65
336.438	9.53
336.81	9.39
337.182	9.31
337.554	9.23
337.926	9.17
338.298	9.1
338.669	9.03
339.041	8.97
339.413	8.93
339.785	8.88
340.157	8.78
340.528	8.76
340.9	8.7
341.272	8.64
341.643	8.56
342.015	8.54
342.386	8.53
342.758	8.56
343.129	8.62
343.501	8.61
343.872	8.64
344.243	8.65
344.615	8.6
344.986	8.53
345.357	8.53
345.728	8.5
346.099	8.51
346.471	8.49
346.842	8.47
347.213	8.4
347.584	8.37
347.955	8.36
348.326	8.3
348.697	8.25
349.067	8.24
349.438	8.27
349.809	8.26
350.18	8.34
350.55	8.35
350.921	8.34
351.292	8.39
351.662	8.4
352.033	8.4
352.403	8.39
352.774	8.37
353.144	8.38
353.515	8.39
353.885	8.4
354.255	8.36
354.626	8.35
354.996	8.34
355.366	8.33
355.736	8.32
356.107	8.32
356.477	8.32
356.847	8.33
357.217	8.31
357.587	8.3
357.957	8.28
358.327	8.25
358.697	8.27
359.066	8.28
359.436	8.29
359.806	8.3
360.176	8.31
360.546	8.31
360.915	8.29
361.285	8.28
361.654	8.26
362.024	8.25
362.393	8.29
362.763	8.29
363.132	8.27
363.502	8.24
363.871	8.24
364.24	8.22
364.61	8.22
364.979	8.22
365.348	8.22
365.717	8.25
366.087	8.25
366.456	8.24
366.825	8.22
367.194	8.22
367.563	8.25
367.932	8.24
368.301	8.25
368.669	8.25
369.038	8.26
369.407	8.25
369.776	8.24
370.145	8.23
370.513	8.24
370.882	8.25
371.25	8.24
371.619	8.22
371.988	8.21
372.356	8.22
372.724	8.24
373.093	8.22
373.461	8.22
373.83	8.22
374.198	8.22
374.566	8.18
374.934	8.19
375.303	8.19
375.671	8.21
376.039	8.21
376.407	8.23
376.775	8.21
377.143	8.22
377.511	8.23
377.879	8.22
378.247	8.24
378.615	8.27
378.982	8.24
379.35	8.21
379.718	8.19
380.086	8.19
380.453	8.14
380.821	8.13
381.188	8.12
381.556	8.12
381.923	8.1
382.291	8.09
382.658	8.09
383.026	8.11
383.393	8.13
383.76	8.16
384.128	8.19
384.495	8.21
384.862	8.21
385.229	8.21
385.596	8.2
385.963	8.19
386.33	8.22
386.697	8.22
387.064	8.2
387.431	8.21
387.798	8.19
388.165	8.18
388.532	8.18
388.899	8.18
389.265	8.19
389.632	8.22
389.999	8.25
390.365	8.22
390.732	8.23
391.098	8.24
391.465	8.24
391.831	8.24
392.198	8.23
392.564	8.23
392.93	8.23
393.297	8.24
393.663	8.24
394.029	8.25
394.395	8.26
394.762	8.24
395.128	8.25
395.494	8.25
395.86	8.27
396.226	8.29
396.592	8.31
396.958	8.33
397.323	8.34
397.689	8.35
398.055	8.36
398.421	8.39
398.787	8.43
399.152	8.44
399.518	8.46
399.883	8.46
400.249	8.47
400.615	8.48
400.98	8.47
401.345	8.47
401.711	8.46
402.076	8.46
402.442	8.44
402.807	8.43
403.172	8.43
403.537	8.43
403.902	8.46
404.268	8.47
404.633	8.46
404.998	8.49
405.363	8.49
405.728	8.52
406.093	8.53
406.457	8.54
406.822	8.55
407.187	8.58
407.552	8.62
407.917	8.63
408.281	8.64
408.646	8.65
409.011	8.66
409.375	8.69
409.74	8.69
410.104	8.7
410.469	8.71
410.833	8.7
411.197	8.7
411.562	8.69
411.926	8.69
412.29	8.7
412.655	8.73
413.019	8.71
413.383	8.71
413.747	8.73
414.111	8.73
414.475	8.75
414.839	8.79
415.203	8.8
415.567	8.82
415.931	8.84
416.295	8.85
416.658	8.85
417.022	8.88
417.386	8.91
417.749	8.9
418.113	8.9
418.477	8.92
418.84	8.94
419.204	8.96
419.567	8.97
419.931	8.99
420.294	8.99
420.657	9.01
421.021	9.04
421.384	9.04
421.747	9.05
422.11	9.08
422.473	9.08
422.836	9.08
423.199	9.11
423.562	9.13
423.925	9.12
424.288	9.14
424.651	9.16
425.014	9.18
425.377	9.2
425.74	9.22
426.102	9.23
426.465	9.27
426.828	9.3
427.19	9.32
427.553	9.32
427.916	9.34
428.278	9.36
428.641	9.36
429.003	9.37
429.365	9.37
429.728	9.38
430.09	9.39
430.452	9.4
430.814	9.39
431.177	9.39
431.539	9.39
431.901	9.41
432.263	9.43
432.625	9.44
432.987	9.45
433.349	9.47
433.711	9.48
434.072	9.51
434.434	9.52
434.796	9.54
435.158	9.59
435.519	9.64
435.881	9.67
436.243	9.65
436.604	9.68
436.966	9.69
437.327	9.72
437.689	9.72
438.05	9.72
438.411	9.75
438.773	9.78
439.134	9.78
439.495	9.78
439.856	9.78
440.218	9.81
440.579	9.82
440.94	9.84
441.301	9.84
441.662	9.87
442.023	9.88
442.384	9.87
442.745	9.87
443.105	9.87
443.466	9.9
443.827	9.92
444.188	9.93
444.548	9.98
444.909	10.01
445.269	10.02
445.63	10.04
445.99	10.09
446.351	10.13
446.711	10.16
447.072	10.19
447.432	10.21
447.792	10.22
448.153	10.23
448.513	10.23
448.873	10.25
449.233	10.26
449.593	10.26
449.953	10.27
450.313	10.26
450.673	10.26
451.033	10.29
451.393	10.27
451.753	10.29
452.113	10.53
452.472	10.54
452.832	10.52
453.192	10.52
453.551	10.53
453.911	10.53
454.271	10.52
454.63	10.51
454.989	10.49
455.349	10.5
455.708	10.51
456.068	10.4
456.427	10.4
456.786	10.43
457.145	10.46
457.505	10.49
457.864	10.52
458.223	10.56
458.582	10.61
458.941	10.65
459.3	10.68
459.659	10.7
460.018	10.73
460.376	10.76
460.735	10.78
461.094	10.79
461.453	10.81
461.811	10.81
462.17	10.82
462.529	10.84
462.887	10.85
463.246	10.87
463.604	10.88
463.963	10.9
464.321	10.94
464.679	10.97
465.038	10.98
465.396	11
465.754	11.03
466.112	11.03
466.47	11.06
466.828	11.09
467.186	11.11
467.544	11.14
467.902	11.16
468.26	11.12
468.618	11.12
468.976	11.13
469.334	11.14
469.692	11.15
470.049	11.15
470.407	11.14
470.765	11.14
471.122	11.15
471.48	11.18
471.837	11.19
472.195	11.21
472.552	11.24
472.909	11.27
473.267	11.27
473.624	11.29
473.981	11.32
474.338	11.33
474.696	11.34
475.053	11.35
475.41	11.33
475.767	11.34
476.124	11.33
476.481	11.34
476.838	11.34
477.194	11.34
477.551	11.34
477.908	11.35
478.265	11.35
478.621	11.36
478.978	11.37
479.335	11.39
479.691	11.4
480.048	11.4
480.404	11.4
480.761	11.43
481.117	11.44
481.473	11.45
481.83	11.45
482.186	11.45
482.542	11.45
482.898	11.45
483.255	11.44
483.611	11.45
483.967	11.48
484.323	11.48
484.679	11.49
485.035	11.49
485.39	11.5
485.746	11.51
486.102	11.53
486.458	11.54
486.814	11.55
487.169	11.59
487.525	11.6
487.88	11.59
488.236	11.59
488.591	11.58
488.947	11.58
489.302	11.57
489.658	11.58
490.013	11.55
490.368	11.54
490.723	11.54
491.079	11.52
491.434	11.52
491.789	11.51
492.144	11.52
492.499	11.53
492.854	11.52
493.209	11.53
493.564	11.54
493.919	11.58
494.273	11.6
494.628	11.59
494.983	11.59
495.338	11.59
495.692	11.59
496.047	11.6
496.401	11.57
496.756	11.54
497.11	11.53
497.465	11.52
497.819	11.48
498.173	11.46
498.528	11.45
498.882	11.45
499.236	11.47
499.59	11.47
499.944	11.48
500.298	11.5
500.652	11.53
501.006	11.53
501.36	11.52
501.714	11.54
502.068	11.55
502.422	11.55
502.776	11.56
503.129	11.57
503.483	11.57
503.837	11.58
504.19	11.57
504.544	11.57
504.897	11.57
505.251	11.57
505.604	11.56
505.958	11.54
506.311	11.52
506.664	11.5
507.017	11.46
507.371	11.44
507.724	11.4
508.077	11.4
508.43	11.39
508.783	11.38
509.136	11.39
509.489	11.37
509.842	11.37
510.195	11.38
510.547	11.38
510.9	11.38
511.253	11.36
511.606	11.35
511.958	11.31
512.311	11.29
512.663	11.24
513.016	11.21
513.368	11.2
513.721	11.18
514.073	11.16
514.425	11.16
514.778	11.14
515.13	11.13
515.482	11.11
515.834	11.12
516.186	11.11
516.538	11.12
516.89	11.12
517.242	11.13
517.594	11.12
517.946	11.11
518.298	11.08
518.65	11.07
519.001	11.06
519.353	11.05
519.705	11.02
520.056	11
520.408	10.99
520.759	10.98
521.111	10.95
521.462	10.94
521.814	10.92
522.165	10.91
522.516	10.92
522.868	10.9
523.219	10.88
523.57	10.88
523.921	10.86
524.272	10.83
524.623	10.8
524.974	10.76
525.325	10.73
525.676	10.71
526.027	10.68
526.378	10.65
526.728	10.62
527.079	10.59
527.43	10.59
527.78	10.54
528.131	10.52
528.481	10.48
528.832	10.47
529.182	10.46
529.533	10.44
529.883	10.41
530.233	10.4
530.584	10.39
530.934	10.36
531.284	10.32
531.634	10.29
531.984	10.28
532.334	10.27
532.684	10.24
533.034	10.21
533.384	10.2
533.734	10.22
534.084	10.17
534.434	10.15
534.783	10.15
535.133	10.12
535.483	10.13
535.832	10.11
536.182	10.08
536.531	10.04
536.881	10.02
537.23	10.01
537.58	9.94
537.929	9.92
538.278	10.61
538.628	10.58
538.977	10.54
539.326	10.49
539.675	10.45
540.024	10.44
540.373	10.41
540.722	10.39
541.071	10.38
541.42	10.37
541.769	10.36
542.117	9.62
542.466	9.59
542.815	9.57
543.163	9.58
543.512	9.55
543.861	9.54
544.209	9.52
544.558	9.5
544.906	9.45
545.254	9.41
545.603	9.38
545.951	9.36
546.299	9.37
546.647	9.37
546.996	9.34
547.344	9.33
547.692	9.3
548.04	9.27
548.388	9.25
548.736	9.2
549.083	9.19
549.431	9.17
549.779	9.14
550.127	9.08
550.475	9
550.822	8.95
551.17	8.93
551.517	8.9
551.865	8.85
552.212	8.83
552.56	8.84
552.907	8.84
553.254	8.79
553.602	8.79
553.949	8.79
554.296	8.78
554.643	8.76
554.99	8.72
555.337	8.7
555.684	8.68
556.031	8.65
556.378	8.6
556.725	8.54
557.072	8.51
557.419	8.49
557.765	8.43
558.112	8.42
558.459	8.4
558.805	8.34
559.152	8.3
559.498	8.29
559.845	8.23
560.191	8.2
560.538	8.18
560.884	8.17
561.23	8.11
561.576	8.08
561.923	8.05
562.269	8.02
562.615	8.01
562.961	8
563.307	7.98
563.653	7.99
563.999	7.98
564.344	7.95
564.69	7.89
565.036	7.87
565.382	7.81
565.727	7.77
566.073	7.73
566.419	7.67
566.764	7.64
567.11	7.6
567.455	7.55
567.8	7.53
568.146	7.48
568.491	7.48
568.836	7.44
569.181	7.42
569.527	7.41
569.872	7.36
570.217	7.33
570.562	7.31
570.907	7.29
571.252	7.28
571.597	7.19
571.941	7.18
572.286	7.15
572.631	7.17
572.976	7.17
573.32	7.17
573.665	7.16
574.009	7.16
574.354	7.16
574.698	7.18
575.043	7.2
575.387	7.18
575.731	7.17
576.076	7.16
576.42	7.15
576.764	7.14
577.108	7.12
577.452	7.1
577.796	7.08
578.14	7.08
578.484	7.09
578.828	7.08
579.172	7.07
579.516	7.08
579.86	7.08
580.203	7.08
580.547	7.06
580.891	7.05
581.234	7.03
581.578	7.01
581.921	6.97
582.264	6.92
582.608	6.9
582.951	6.92
583.294	6.93
583.638	6.92
583.981	6.91
584.324	6.89
584.667	6.88
585.01	6.87
585.353	6.86
585.696	6.86
586.039	6.83
586.382	6.82
586.725	6.8
587.067	6.78
587.41	6.75
587.753	6.72
588.095	6.71
588.438	6.71
588.781	6.71
589.123	6.69
589.465	6.67
589.808	6.67
590.15	6.68
590.492	6.66
590.835	6.64
591.177	6.62
591.519	6.62
591.861	6.62
592.203	6.62
592.545	6.61
592.887	6.61
593.229	6.59
593.571	6.58
593.913	6.57
594.254	6.55
594.596	6.55
594.938	6.54
595.279	6.52
595.621	6.51
595.963	6.5
596.304	6.46
596.645	6.46
596.987	6.46
597.328	6.45
597.669	6.43
598.011	6.41
598.352	6.39
598.693	6.36
599.034	6.34
599.375	6.32
599.716	6.3
600.057	6.3
600.398	6.3
600.739	6.3
601.08	6.29
601.42	6.31
601.761	6.31
602.102	6.31
602.442	6.32
602.783	6.32
603.123	6.32
603.464	6.31
603.804	6.29
604.145	6.28
604.485	6.27
604.825	6.25
605.166	6.25
605.506	6.25
605.846	6.25
606.186	6.25
606.526	6.25
606.866	6.25
607.206	6.25
607.546	6.19
607.886	6.18
608.225	6.18
608.565	6.19
608.905	6.19
609.245	6.14
609.584	6.13
609.924	6.13
610.263	6.13
610.603	6.13
610.942	6.13
611.281	6.15
611.621	6.14
611.96	6.11
612.299	6.13
612.638	6.15
612.978	6.14
613.317	6.13
613.656	6.14
613.995	6.16
614.334	6.16
614.672	6.16
615.011	6.16
615.35	6.15
615.689	6.14
616.027	6.1
616.366	6.09
616.705	6.09
617.043	6.07
617.382	6.06
617.72	6.06
618.059	6.02
618.397	6.01
618.735	6
619.073	6
619.412	6
619.75	5.97
620.088	5.91
620.426	5.88
620.764	5.85
621.102	5.83
621.44	5.8
621.778	5.74
622.115	5.72
622.453	5.71
622.791	5.71
623.129	5.69
623.466	5.68
623.804	5.68
624.141	5.64
624.479	5.6
624.816	5.58
625.153	5.57
625.491	5.56
625.828	5.54
626.165	5.52
626.502	5.5
626.84	5.46
627.177	5.47
627.514	5.49
627.851	5.48
628.188	5.47
628.524	5.43
628.861	5.45
629.198	5.44
629.535	5.43
629.871	5.41
630.208	5.41
630.545	5.44
630.881	5.4
631.218	5.37
631.554	5.35
631.89	5.37
632.227	5.38
632.563	5.34
632.899	5.33
633.235	5.31
633.572	5.28
633.908	5.27
634.244	5.28
634.58	5.29
634.916	5.3
635.251	5.31
635.587	5.26
635.923	5.25
636.259	5.25
636.595	5.25
636.93	5.26
637.266	5.29
637.601	5.25
637.937	5.16
638.272	5.13
638.608	5.14
638.943	5.11
639.278	5.14
639.613	5.13
639.949	5.15
640.284	5.1
640.619	5.12
640.954	5.12
641.289	5.14
641.624	5.17
641.959	5.22
642.294	5.14
642.628	5.13
642.963	5.15
643.298	5.11
643.632	5.12
643.967	5.1
644.302	5.08
644.636	5.08
644.971	5.04
645.305	5.03
645.639	5
645.974	5.03
646.308	5.01
646.642	4.95
646.976	4.93
647.31	4.87
647.644	4.88
647.978	4.83
648.312	4.8
648.646	4.8
648.98	4.83
649.314	4.83
649.647	4.82
649.981	4.82
650.315	4.81
650.648	4.8
650.982	4.87
651.315	4.8
651.649	4.84
651.982	4.82
652.316	4.81
652.649	4.74
652.982	4.7
653.315	4.66
653.648	4.67
653.982	4.69
654.315	4.7
654.648	4.65
654.981	4.71
655.313	4.68
655.646	4.71
655.979	4.67
656.312	4.7
656.644	4.7
656.977	4.68
657.31	4.56
657.642	4.47
657.975	4.49
658.307	4.52
658.64	4.51
658.972	4.51
659.304	4.49
659.636	4.52
659.969	4.45
660.301	4.43
660.633	4.45
660.965	4.55
661.297	4.65
661.629	4.66
661.961	4.56
662.292	4.59
662.624	4.55
662.956	4.53
663.288	4.57
663.619	4.64
663.951	4.62
664.282	4.6
664.614	4.58
664.945	4.56
665.276	4.51
665.608	4.52
665.939	4.43
666.27	4.39
666.601	4.37
666.933	4.3
667.264	4.28
667.595	4.29
667.926	4.28
668.256	4.29
668.587	4.24
668.918	4.24
669.249	4.13
669.58	4.23
669.91	4.31
670.241	4.29
670.571	4.36
670.902	4.29
671.232	4.29
671.563	4.3
671.893	4.32
672.223	4.3
672.554	4.29
672.884	4.35
673.214	4.29
673.544	4.28
673.874	4.27
674.204	4.21
674.534	4.25
674.864	4.23
675.194	4.21
675.524	4.15
675.853	4.18
676.183	4.2
676.513	4.31
676.842	4.32
677.172	4.32
677.501	4.39
677.831	4.41
678.16	4.39
678.489	4.44
678.819	4.54
679.148	4.57
679.477	4.63
679.806	4.64
680.135	4.59
680.464	4.61
680.793	4.56
681.122	4.48
681.451	4.47
681.78	4.37
682.108	4.29
682.437	4.14
682.766	4.05
683.094	3.94
683.423	3.89
683.751	3.87
684.08	3.76
684.408	3.81
684.737	3.82
685.065	3.72
685.393	3.91
685.721	3.94
686.049	4.04
686.377	4.1
686.705	4.1
687.033	4.15
687.361	4.15
687.689	4.17
688.017	4.11
688.345	4.09
688.673	4.19
