Data from groin3_Reflection__2__12-09-55-742.txt Node

Date: Thu Aug 04 12:09:55 AEST 2022
User: kathy
Spectrometer: JAZA2503
Trigger mode: 0
Integration Time (sec): 2.883200E-1
Scans to average: 10
Electric dark correction enabled: true
Nonlinearity correction enabled: true
Boxcar width: 5
XAxis mode: Wavelengths
Number of Pixels in Spectrum: 2048
>>>>>Begin Spectral Data<<<<<
189.467	-116.12
189.852	-221.3
190.237	-6280.83
190.622	-340.03
191.007	-86.16
191.392	-122.3
191.777	159.37
192.162	-191.77
192.546	-116.17
192.931	-337.1
193.316	-232.62
193.701	-311.79
194.086	90.54
194.47	117.5
194.855	198.68
195.24	868.04
195.624	-29.26
196.009	695.22
196.393	286.17
196.778	-1063.69
197.163	-66.71
197.547	-29.29
197.931	-22.84
198.316	-8.24
198.7	-17.11
199.085	-10.91
199.469	-3.85
199.853	1.94
200.237	7.66
200.622	2.27
201.006	-5.3
201.39	-7.56
201.774	-7.15
202.158	-7.61
202.542	-9.72
202.926	-13.02
203.31	-19.51
203.694	-23.2
204.078	-31.4
204.462	-28.15
204.846	-21.89
205.23	-19.2
205.614	-21.54
205.998	-34.3
206.381	-30.63
206.765	-29.16
207.149	-21.37
207.532	-16.92
207.916	-16.22
208.3	-12.58
208.683	-10.64
209.067	-11.42
209.45	-2.61
209.834	0.94
210.217	11.81
210.601	13.91
210.984	17.73
211.367	21.33
211.751	23.04
212.134	26.08
212.517	24.77
212.901	23.67
213.284	22.83
213.667	23.67
214.05	24.65
214.433	20.93
214.816	21.12
215.199	21.68
215.582	18.12
215.965	15.79
216.348	12.69
216.731	13.97
217.114	8.88
217.497	7.06
217.88	5.06
218.262	3.67
218.645	4.01
219.028	1.54
219.411	-5.27
219.793	-7.18
220.176	-6.86
220.559	-8.91
220.941	-11.97
221.324	-10.12
221.706	-8.36
222.089	-8.57
222.471	-7.75
222.853	-10.25
223.236	-9.19
223.618	-6.03
224	-3.95
224.383	-4.16
224.765	-1.96
225.147	0.04
225.529	0.47
225.912	0.01
226.294	-0.12
226.676	0.08
227.058	1.21
227.44	0.91
227.822	0.47
228.204	0.24
228.586	0.76
228.968	0.56
229.349	0.54
229.731	1.15
230.113	0.94
230.495	1.08
230.877	0.97
231.258	1.16
231.64	1.28
232.022	0.83
232.403	1.04
232.785	1.09
233.166	1.21
233.548	1.21
233.929	0.61
234.311	0.7
234.692	0.19
235.073	0.13
235.455	0.2
235.836	0.26
236.217	0.73
236.599	0.34
236.98	-0.06
237.361	-0.48
237.742	-0.47
238.123	-0.37
238.504	-0.39
238.885	-0.05
239.266	-0.1
239.647	-0.45
240.028	-0.48
240.409	-0.53
240.79	-0.13
241.171	0.14
241.552	0.21
241.933	0.17
242.313	0.31
242.694	0.5
243.075	0.68
243.456	0.54
243.836	0.83
244.217	0.88
244.597	1.01
244.978	1
245.358	0.98
245.739	1.06
246.119	1
246.5	0.92
246.88	0.89
247.26	0.72
247.641	0.79
248.021	0.75
248.401	0.71
248.781	0.68
249.162	0.69
249.542	0.63
249.922	0.61
250.302	0.61
250.682	0.59
251.062	0.52
251.442	0.45
251.822	0.46
252.202	0.26
252.582	0.3
252.961	0.38
253.341	0.39
253.721	0.41
254.101	0.33
254.48	0.39
254.86	0.2
255.24	0.2
255.619	0.57
255.999	0.46
256.378	0.56
256.758	0.48
257.137	0.45
257.517	0.44
257.896	0.47
258.276	0.59
258.655	0.49
259.034	0.62
259.414	0.59
259.793	0.41
260.172	0.45
260.551	0.42
260.93	0.39
261.309	0.32
261.688	0.29
262.068	0.34
262.447	0.27
262.825	0.27
263.204	0.18
263.583	0.14
263.962	0.18
264.341	0.18
264.72	0.2
265.099	0.14
265.477	0.18
265.856	0.13
266.235	0.08
266.613	0.1
266.992	0.13
267.371	0.21
267.749	0.37
268.128	0.34
268.506	0.37
268.884	0.4
269.263	0.45
269.641	0.4
270.02	0.36
270.398	0.32
270.776	0.39
271.154	0.48
271.533	0.49
271.911	0.38
272.289	0.36
272.667	0.35
273.045	0.25
273.423	0.31
273.801	0.31
274.179	0.3
274.557	0.28
274.935	0.31
275.313	0.21
275.69	0.2
276.068	0.22
276.446	0.28
276.824	0.28
277.201	0.39
277.579	0.39
277.957	0.43
278.334	0.41
278.712	0.41
279.089	0.32
279.467	0.42
279.844	0.43
280.222	0.4
280.599	0.38
280.976	0.35
281.354	0.27
281.731	0.26
282.108	0.3
282.485	0.35
282.863	0.39
283.24	0.35
283.617	0.3
283.994	0.24
284.371	0.27
284.748	0.24
285.125	0.27
285.502	0.32
285.879	0.31
286.256	0.3
286.633	0.32
287.009	0.36
287.386	0.41
287.763	0.48
288.139	0.56
288.516	0.6
288.893	0.65
289.269	0.67
289.646	0.73
290.022	0.77
290.399	0.79
290.775	0.81
291.152	0.79
291.528	0.82
291.904	0.76
292.281	0.76
292.657	0.75
293.033	0.79
293.41	0.82
293.786	0.79
294.162	0.81
294.538	0.86
294.914	0.9
295.29	0.92
295.666	0.97
296.042	1.02
296.418	1.05
296.794	1.11
297.17	1.12
297.546	1.17
297.921	1.22
298.297	1.27
298.673	1.3
299.048	1.34
299.424	1.38
299.8	1.42
300.175	1.49
300.551	1.56
300.926	1.58
301.302	1.62
301.677	1.64
302.053	1.68
302.428	1.67
302.803	1.71
303.179	1.72
303.554	1.78
303.929	1.81
304.304	1.8
304.68	1.81
305.055	1.89
305.43	1.93
305.805	1.96
306.18	1.97
306.555	2.05
306.93	2.1
307.305	2.12
307.679	2.13
308.054	2.11
308.429	2.14
308.804	2.16
309.179	2.16
309.553	2.17
309.928	2.21
310.303	2.26
310.677	2.27
311.052	2.28
311.426	2.3
311.801	2.33
312.175	2.35
312.55	2.39
312.924	2.38
313.298	2.39
313.673	2.4
314.047	2.42
314.421	2.4
314.795	2.42
315.17	2.43
315.544	2.44
315.918	2.46
316.292	2.5
316.666	2.53
317.04	2.6
317.414	2.64
317.788	2.69
318.162	2.74
318.535	2.81
318.909	2.87
319.283	2.91
319.657	2.99
320.03	3.07
320.404	3.17
320.778	3.28
321.151	3.52
321.525	3.72
321.898	4.01
322.272	4.3
322.645	4.6
323.019	4.95
323.392	5.29
323.765	5.68
324.139	6.05
324.512	6.4
324.885	6.76
325.258	7.09
325.632	7.38
326.005	7.6
326.378	7.76
326.751	7.91
327.124	8.04
327.497	8.03
327.87	8.04
328.243	8.08
328.616	8.16
328.988	8.15
329.361	8.13
329.734	8.12
330.107	8.09
330.479	8.02
330.852	7.99
331.225	7.96
331.597	7.93
331.97	7.85
332.342	7.79
332.715	7.66
333.087	7.53
333.46	7.36
333.832	7.32
334.204	7.26
334.577	7.25
334.949	7.22
335.321	7.17
335.693	7.11
336.065	7.03
336.438	6.97
336.81	6.91
337.182	6.88
337.554	6.81
337.926	6.72
338.298	6.64
338.669	6.55
339.041	6.49
339.413	6.45
339.785	6.43
340.157	6.43
340.528	6.37
340.9	6.32
341.272	6.25
341.643	6.24
342.015	6.23
342.386	6.27
342.758	6.31
343.129	6.38
343.501	6.39
343.872	6.39
344.243	6.4
344.615	6.37
344.986	6.37
345.357	6.37
345.728	6.39
346.099	6.37
346.471	6.35
346.842	6.33
347.213	6.36
347.584	6.32
347.955	6.32
348.326	6.3
348.697	6.24
349.067	6.2
349.438	6.17
349.809	6.19
350.18	6.25
350.55	6.26
350.921	6.3
351.292	6.37
351.662	6.38
352.033	6.41
352.403	6.43
352.774	6.49
353.144	6.48
353.515	6.47
353.885	6.48
354.255	6.47
354.626	6.47
354.996	6.47
355.366	6.44
355.736	6.44
356.107	6.44
356.477	6.42
356.847	6.38
357.217	6.4
357.587	6.43
357.957	6.43
358.327	6.41
358.697	6.42
359.066	6.43
359.436	6.46
359.806	6.44
360.176	6.46
360.546	6.49
360.915	6.51
361.285	6.51
361.654	6.5
362.024	6.49
362.393	6.53
362.763	6.53
363.132	6.53
363.502	6.53
363.871	6.56
364.24	6.59
364.61	6.61
364.979	6.62
365.348	6.64
365.717	6.67
366.087	6.71
366.456	6.73
366.825	6.76
367.194	6.79
367.563	6.8
367.932	6.81
368.301	6.8
368.669	6.81
369.038	6.82
369.407	6.84
369.776	6.86
370.145	6.87
370.513	6.84
370.882	6.87
371.25	6.87
371.619	6.92
371.988	6.95
372.356	6.98
372.724	7.01
373.093	7.06
373.461	7.08
373.83	7.11
374.198	7.13
374.566	7.19
374.934	7.19
375.303	7.22
375.671	7.21
376.039	7.25
376.407	7.27
376.775	7.28
377.143	7.28
377.511	7.3
377.879	7.31
378.247	7.34
378.615	7.35
378.982	7.41
379.35	7.44
379.718	7.46
380.086	7.48
380.453	7.5
380.821	7.54
381.188	7.57
381.556	7.6
381.923	7.63
382.291	7.65
382.658	7.67
383.026	7.67
383.393	7.68
383.76	7.71
384.128	7.71
384.495	7.75
384.862	7.78
385.229	7.81
385.596	7.83
385.963	7.87
386.33	7.9
386.697	7.93
387.064	7.96
387.431	7.99
387.798	8.03
388.165	8.06
388.532	8.08
388.899	8.06
389.265	8.06
389.632	8.06
389.999	8.06
390.365	8.06
390.732	8.06
391.098	8.07
391.465	8.07
391.831	8.05
392.198	8.06
392.564	8.06
392.93	8.09
393.297	8.1
393.663	8.09
394.029	8.09
394.395	8.1
394.762	8.12
395.128	8.14
395.494	8.15
395.86	8.19
396.226	8.2
396.592	8.2
396.958	8.22
397.323	8.24
397.689	8.27
398.055	8.31
398.421	8.33
398.787	8.36
399.152	8.37
399.518	8.37
399.883	8.38
400.249	8.39
400.615	8.41
400.98	8.4
401.345	8.41
401.711	8.41
402.076	8.41
402.442	8.41
402.807	8.4
403.172	8.4
403.537	8.42
403.902	8.41
404.268	8.43
404.633	8.44
404.998	8.46
405.363	8.46
405.728	8.48
406.093	8.49
406.457	8.5
406.822	8.53
407.187	8.55
407.552	8.56
407.917	8.59
408.281	8.61
408.646	8.63
409.011	8.65
409.375	8.66
409.74	8.65
410.104	8.66
410.469	8.67
410.833	8.67
411.197	8.66
411.562	8.67
411.926	8.66
412.29	8.65
412.655	8.65
413.019	8.65
413.383	8.65
413.747	8.69
414.111	8.71
414.475	8.74
414.839	8.75
415.203	8.77
415.567	8.8
415.931	8.82
416.295	8.85
416.658	8.86
417.022	8.86
417.386	8.88
417.749	8.88
418.113	8.87
418.477	8.87
418.84	8.88
419.204	8.9
419.567	8.88
419.931	8.89
420.294	8.88
420.657	8.92
421.021	8.95
421.384	8.96
421.747	8.98
422.11	9
422.473	9
422.836	9.01
423.199	9
423.562	9.02
423.925	9.02
424.288	9.02
424.651	9.02
425.014	9.02
425.377	9.05
425.74	9.03
426.102	9.05
426.465	9.07
426.828	9.1
427.19	9.12
427.553	9.14
427.916	9.16
428.278	9.19
428.641	9.19
429.003	9.21
429.365	9.2
429.728	9.21
430.09	9.21
430.452	9.2
430.814	9.19
431.177	9.18
431.539	9.16
431.901	9.17
432.263	9.2
432.625	9.22
432.987	9.25
433.349	9.28
433.711	9.32
434.072	9.35
434.434	9.39
434.796	9.42
435.158	9.49
435.519	9.54
435.881	9.57
436.243	9.57
436.604	9.59
436.966	9.59
437.327	9.59
437.689	9.59
438.05	9.59
438.411	9.6
438.773	9.62
439.134	9.61
439.495	9.62
439.856	9.65
440.218	9.66
440.579	9.69
440.94	9.71
441.301	9.76
441.662	9.81
442.023	9.85
442.384	9.87
442.745	9.9
443.105	9.9
443.466	9.92
443.827	9.91
444.188	9.94
444.548	9.93
444.909	9.95
445.269	9.93
445.63	9.95
445.99	9.95
446.351	9.98
446.711	10
447.072	10.02
447.432	10.07
447.792	10.12
448.153	10.14
448.513	10.17
448.873	10.18
449.233	10.19
449.593	10.18
449.953	10.19
450.313	10.2
450.673	10.19
451.033	10.21
451.393	10.2
451.753	10.18
452.113	10.78
452.472	10.77
452.832	10.74
453.192	10.74
453.551	10.73
453.911	10.72
454.271	10.7
454.63	10.69
454.989	10.69
455.349	10.71
455.708	10.71
456.068	10.41
456.427	10.43
456.786	10.47
457.145	10.48
457.505	10.52
457.864	10.57
458.223	10.63
458.582	10.68
458.941	10.72
459.3	10.76
459.659	10.79
460.018	10.82
460.376	10.84
460.735	10.85
461.094	10.88
461.453	10.9
461.811	10.9
462.17	10.9
462.529	10.91
462.887	10.91
463.246	10.93
463.604	10.95
463.963	10.98
464.321	10.91
464.679	10.91
465.038	10.93
465.396	10.95
465.754	10.97
466.112	11
466.47	11.03
466.828	11.07
467.186	11.1
467.544	11.12
467.902	11.14
468.26	11.3
468.618	11.34
468.976	11.37
469.334	11.39
469.692	11.42
470.049	11.41
470.407	11.41
470.765	11.41
471.122	11.43
471.48	11.45
471.837	11.48
472.195	11.51
472.552	11.55
472.909	11.59
473.267	11.63
473.624	11.67
473.981	11.71
474.338	11.75
474.696	11.8
475.053	11.81
475.41	11.85
475.767	11.88
476.124	11.91
476.481	11.93
476.838	11.95
477.194	11.96
477.551	11.98
477.908	12.01
478.265	12.02
478.621	12.03
478.978	12.04
479.335	12.07
479.691	12.08
480.048	12.09
480.404	12.1
480.761	12.14
481.117	12.16
481.473	12.16
481.83	12.18
482.186	12.21
482.542	12.25
482.898	12.27
483.255	12.29
483.611	12.32
483.967	12.36
484.323	12.4
484.679	12.41
485.035	12.44
485.39	12.47
485.746	12.48
486.102	12.48
486.458	12.49
486.814	12.52
487.169	12.53
487.525	12.54
487.88	12.56
488.236	12.56
488.591	12.57
488.947	12.58
489.302	12.59
489.658	12.61
490.013	12.64
490.368	12.63
490.723	12.63
491.079	12.65
491.434	12.66
491.789	12.67
492.144	12.67
492.499	12.69
492.854	12.7
493.209	12.73
493.564	12.77
493.919	12.79
494.273	12.81
494.628	12.82
494.983	12.81
495.338	12.83
495.692	12.84
496.047	12.86
496.401	12.84
496.756	12.85
497.11	12.82
497.465	12.8
497.819	12.78
498.173	12.79
498.528	12.79
498.882	12.81
499.236	12.82
499.59	12.84
499.944	12.87
500.298	12.91
500.652	12.93
501.006	12.96
501.36	12.99
501.714	13
502.068	12.99
502.422	13.01
502.776	13.03
503.129	13.03
503.483	13.04
503.837	13.05
504.19	13.06
504.544	13.06
504.897	13.06
505.251	13.05
505.604	13.04
505.958	13.03
506.311	13
506.664	12.97
507.017	12.94
507.371	12.91
507.724	12.88
508.077	12.84
508.43	12.82
508.783	12.79
509.136	12.77
509.489	12.77
509.842	12.77
510.195	12.77
510.547	12.77
510.9	12.78
511.253	12.76
511.606	12.74
511.958	12.71
512.311	12.68
512.663	12.64
513.016	12.63
513.368	12.6
513.721	12.59
514.073	12.57
514.425	12.55
514.778	12.53
515.13	12.52
515.482	12.51
515.834	12.5
516.186	12.51
516.538	12.53
516.89	12.53
517.242	12.55
517.594	12.54
517.946	12.55
518.298	12.54
518.65	12.56
519.001	12.55
519.353	12.54
519.705	12.52
520.056	12.49
520.408	12.45
520.759	12.4
521.111	12.36
521.462	12.36
521.814	12.33
522.165	12.31
522.516	12.28
522.868	12.26
523.219	12.23
523.57	12.22
523.921	12.21
524.272	12.19
524.623	12.17
524.974	12.14
525.325	12.08
525.676	12.05
526.027	12.03
526.378	12
526.728	11.99
527.079	11.96
527.43	11.95
527.78	11.93
528.131	11.91
528.481	11.9
528.832	11.89
529.182	11.88
529.533	11.86
529.883	11.83
530.233	11.81
530.584	11.78
530.934	11.78
531.284	11.74
531.634	11.7
531.984	11.68
532.334	11.67
532.684	11.63
533.034	11.62
533.384	11.6
533.734	11.6
534.084	11.58
534.434	11.55
534.783	11.53
535.133	11.49
535.483	11.48
535.832	11.46
536.182	11.43
536.531	11.41
536.881	11.38
537.23	11.34
537.58	11.27
537.929	11.22
538.278	12.68
538.628	12.65
538.977	12.63
539.326	12.59
539.675	12.52
540.024	12.49
540.373	12.45
540.722	12.4
541.071	12.38
541.42	12.38
541.769	12.36
542.117	10.86
542.466	10.8
542.815	10.78
543.163	10.77
543.512	10.76
543.861	10.75
544.209	10.72
544.558	10.68
544.906	10.65
545.254	10.63
545.603	10.62
545.951	10.6
546.299	10.63
546.647	10.66
546.996	10.61
547.344	10.6
547.692	10.56
548.04	10.55
548.388	10.54
548.736	10.54
549.083	10.51
549.431	10.46
549.779	10.41
550.127	10.36
550.475	10.28
550.822	10.25
551.17	10.2
551.517	10.18
551.865	10.16
552.212	10.15
552.56	10.13
552.907	10.08
553.254	10.06
553.602	10.03
553.949	9.98
554.296	9.94
554.643	9.9
554.99	9.89
555.337	9.85
555.684	9.79
556.031	9.74
556.378	9.68
556.725	9.68
557.072	9.65
557.419	9.64
557.765	9.61
558.112	9.59
558.459	9.54
558.805	9.55
559.152	9.53
559.498	9.5
559.845	9.48
560.191	9.45
560.538	9.39
560.884	9.36
561.23	9.32
561.576	9.24
561.923	9.21
562.269	9.17
562.615	9.11
562.961	9.07
563.307	9.05
563.653	9.03
563.999	8.97
564.344	8.96
564.69	8.96
565.036	8.95
565.382	8.95
565.727	8.94
566.073	8.92
566.419	8.89
566.764	8.85
567.11	8.79
567.455	8.75
567.8	8.73
568.146	8.69
568.491	8.64
568.836	8.59
569.181	8.54
569.527	8.51
569.872	8.49
570.217	8.44
570.562	8.42
570.907	8.43
571.252	8.44
571.597	8.44
571.941	8.44
572.286	8.4
572.631	8.4
572.976	8.4
573.32	8.39
573.665	8.38
574.009	8.36
574.354	8.34
574.698	8.34
575.043	8.31
575.387	8.3
575.731	8.3
576.076	8.29
576.42	8.28
576.764	8.26
577.108	8.23
577.452	8.2
577.796	8.16
578.14	8.14
578.484	8.09
578.828	8.08
579.172	8.06
579.516	8.05
579.86	8.02
580.203	8
580.547	7.94
580.891	7.91
581.234	7.89
581.578	7.88
581.921	7.86
582.264	7.85
582.608	7.83
582.951	7.79
583.294	7.79
583.638	7.77
583.981	7.76
584.324	7.75
584.667	7.74
585.01	7.73
585.353	7.72
585.696	7.72
586.039	7.72
586.382	7.7
586.725	7.69
587.067	7.69
587.41	7.68
587.753	7.68
588.095	7.67
588.438	7.67
588.781	7.67
589.123	7.65
589.465	7.65
589.808	7.65
590.15	7.63
590.492	7.59
590.835	7.59
591.177	7.58
591.519	7.56
591.861	7.54
592.203	7.53
592.545	7.51
592.887	7.5
593.229	7.49
593.571	7.45
593.913	7.43
594.254	7.38
594.596	7.37
594.938	7.36
595.279	7.35
595.621	7.33
595.963	7.33
596.304	7.33
596.645	7.32
596.987	7.31
597.328	7.29
597.669	7.28
598.011	7.28
598.352	7.29
598.693	7.26
599.034	7.26
599.375	7.26
599.716	7.27
600.057	7.25
600.398	7.25
600.739	7.26
601.08	7.27
601.42	7.28
601.761	7.31
602.102	7.29
602.442	7.28
602.783	7.28
603.123	7.28
603.464	7.25
603.804	7.23
604.145	7.19
604.485	7.18
604.825	7.18
605.166	7.15
605.506	7.14
605.846	7.12
606.186	7.13
606.526	7.13
606.866	7.12
607.206	7.1
607.546	7.09
607.886	7.09
608.225	7.05
608.565	7.04
608.905	7.01
609.245	6.97
609.584	6.96
609.924	6.96
610.263	6.96
610.603	6.95
610.942	6.95
611.281	6.95
611.621	6.95
611.96	6.96
612.299	6.96
612.638	6.97
612.978	6.96
613.317	6.96
613.656	6.9
613.995	6.9
614.334	6.86
614.672	6.84
615.011	6.82
615.35	6.79
615.689	6.77
616.027	6.75
616.366	6.75
616.705	6.75
617.043	6.72
617.382	6.7
617.72	6.69
618.059	6.62
618.397	6.57
618.735	6.56
619.073	6.54
619.412	6.53
619.75	6.51
620.088	6.49
620.426	6.47
620.764	6.45
621.102	6.44
621.44	6.42
621.778	6.41
622.115	6.41
622.453	6.4
622.791	6.38
623.129	6.38
623.466	6.37
623.804	6.38
624.141	6.38
624.479	6.38
624.816	6.37
625.153	6.38
625.491	6.39
625.828	6.43
626.165	6.44
626.502	6.44
626.84	6.41
627.177	6.38
627.514	6.36
627.851	6.34
628.188	6.3
628.524	6.32
628.861	6.31
629.198	6.22
629.535	6.19
629.871	6.15
630.208	6.06
630.545	6.07
630.881	6.11
631.218	6.11
631.554	6.11
631.89	6.12
632.227	6.1
632.563	6.1
632.899	6.13
633.235	6.12
633.572	6.09
633.908	6.12
634.244	6.06
634.58	5.97
634.916	5.95
635.251	5.91
635.587	5.88
635.923	5.89
636.259	5.86
636.595	5.84
636.93	5.86
637.266	5.88
637.601	5.83
637.937	5.81
638.272	5.81
638.608	5.81
638.943	5.85
639.278	5.84
639.613	5.81
639.949	5.78
640.284	5.77
640.619	5.78
640.954	5.72
641.289	5.75
641.624	5.77
641.959	5.73
642.294	5.64
642.628	5.6
642.963	5.59
643.298	5.56
643.632	5.62
643.967	5.61
644.302	5.55
644.636	5.58
644.971	5.53
645.305	5.48
645.639	5.53
645.974	5.59
646.308	5.55
646.642	5.57
646.976	5.6
647.31	5.5
647.644	5.46
647.978	5.44
648.312	5.39
648.646	5.42
648.98	5.46
649.314	5.42
649.647	5.38
649.981	5.36
650.315	5.33
650.648	5.26
650.982	5.27
651.315	5.26
651.649	5.2
651.982	5.2
652.316	5.12
652.649	5.07
652.982	5.07
653.315	5.09
653.648	5.15
653.982	5.18
654.315	5.12
654.648	5.06
654.981	5.04
655.313	5.13
655.646	5.15
655.979	5.25
656.312	5.25
656.644	5.27
656.977	5.25
657.31	5.21
657.642	5.2
657.975	5.24
658.307	5.27
658.64	5.31
658.972	5.31
659.304	5.25
659.636	5.18
659.969	5.13
660.301	5.12
660.633	5.09
660.965	5.07
661.297	5.01
661.629	5
661.961	4.98
662.292	4.9
662.624	4.86
662.956	4.85
663.288	4.9
663.619	4.92
663.951	4.88
664.282	4.86
664.614	4.8
664.945	4.82
665.276	4.79
665.608	4.81
665.939	4.79
666.27	4.75
666.601	4.75
666.933	4.68
667.264	4.7
667.595	4.72
667.926	4.75
668.256	4.73
668.587	4.64
668.918	4.66
669.249	4.64
669.58	4.66
669.91	4.64
670.241	4.66
670.571	4.61
670.902	4.61
671.232	4.5
671.563	4.42
671.893	4.41
672.223	4.46
672.554	4.44
672.884	4.48
673.214	4.51
673.544	4.6
673.874	4.59
674.204	4.65
674.534	4.6
674.864	4.71
675.194	4.75
675.524	4.87
675.853	4.94
676.183	4.9
676.513	4.83
676.842	4.82
677.172	4.78
677.501	4.83
677.831	4.8
678.16	4.86
678.489	4.88
678.819	4.92
679.148	4.83
679.477	4.76
679.806	4.74
680.135	4.7
680.464	4.68
680.793	4.68
681.122	4.56
681.451	4.54
681.78	4.51
682.108	4.45
682.437	4.41
682.766	4.45
683.094	4.49
683.423	4.54
683.751	4.64
684.08	4.55
684.408	4.47
684.737	4.53
685.065	4.51
685.393	4.47
685.721	4.5
686.049	4.45
686.377	4.46
686.705	4.39
687.033	4.37
687.361	4.32
687.689	4.43
