Data from thigh1_Reflection__1__14-58-40-687.txt Node

Date: Thu Aug 04 14:58:40 AEST 2022
User: kathy
Spectrometer: JAZA2503
Trigger mode: 0
Integration Time (sec): 2.439700E-1
Scans to average: 10
Electric dark correction enabled: true
Nonlinearity correction enabled: true
Boxcar width: 5
XAxis mode: Wavelengths
Number of Pixels in Spectrum: 2048
>>>>>Begin Spectral Data<<<<<
189.467	-336.92
189.852	-143.24
190.237	-124.96
190.622	-137.25
191.007	-166.31
191.392	-45.29
191.777	-17.65
192.162	2.9
192.546	61.5
192.931	328.8
193.316	-119.58
193.701	-286.61
194.086	-52.81
194.47	-0.23
194.855	1728.3
195.24	405.87
195.624	111.53
196.009	94.32
196.393	131.15
196.778	276.85
197.163	129.08
197.547	107.8
197.931	102.77
198.316	71.96
198.7	62.16
199.085	60.14
199.469	62.82
199.853	47.45
200.237	36.43
200.622	40.32
201.006	38.76
201.39	30.8
201.774	29.61
202.158	29.55
202.542	28.31
202.926	20.97
203.31	17.38
203.694	1.48
204.078	8.16
204.462	13.01
204.846	9.32
205.23	8.51
205.614	6.51
205.998	7.3
206.381	5.35
206.765	6.06
207.149	12.06
207.532	11.84
207.916	18.8
208.3	14.39
208.683	20.84
209.067	26.95
209.45	25.62
209.834	35.16
210.217	38.91
210.601	38.82
210.984	43.08
211.367	46.11
211.751	41.09
212.134	38.33
212.517	45.41
212.901	37.24
213.284	33.32
213.667	34.17
214.05	28.34
214.433	23.64
214.816	20.64
215.199	15.79
215.582	10.52
215.965	6.53
216.348	9.81
216.731	-3.71
217.114	-7.63
217.497	-9.63
217.88	-11.95
218.262	-17.29
218.645	-18.91
219.028	-14.23
219.411	-15.21
219.793	-10.11
220.176	-7.26
220.559	-8.23
220.941	-4.22
221.324	2.25
221.706	6.18
222.089	8.39
222.471	12.89
222.853	14.26
223.236	15.91
223.618	17.05
224	15.66
224.383	16.12
224.765	15.47
225.147	15.01
225.529	12.4
225.912	9.85
226.294	7.05
226.676	3.57
227.058	2.19
227.44	1.31
227.822	1.82
228.204	2.73
228.586	2.19
228.968	2.31
229.349	2.54
229.731	2.67
230.113	2.59
230.495	3.26
230.877	3.67
231.258	3.83
231.64	3.77
232.022	3.23
232.403	2.91
232.785	3.4
233.166	3.08
233.548	2.75
233.929	2.76
234.311	3.24
234.692	2.52
235.073	2.35
235.455	2.43
235.836	2.45
236.217	2.65
236.599	2.57
236.98	2.45
237.361	2.53
237.742	2.29
238.123	2.32
238.504	1.93
238.885	2.06
239.266	2.4
239.647	1.99
240.028	1.96
240.409	1.72
240.79	1.97
241.171	1.89
241.552	1.82
241.933	1.9
242.313	1.99
242.694	1.98
243.075	2.14
243.456	1.82
243.836	2.03
244.217	2.24
244.597	2.49
244.978	2.32
245.358	2.49
245.739	2.36
246.119	2.41
246.5	2.36
246.88	2.26
247.26	2.08
247.641	2.1
248.021	1.99
248.401	1.85
248.781	1.77
249.162	1.82
249.542	1.6
249.922	1.56
250.302	1.46
250.682	1.34
251.062	1.37
251.442	1.46
251.822	1.57
252.202	1.69
252.582	1.62
252.961	1.67
253.341	1.69
253.721	1.98
254.101	2.22
254.48	2.33
254.86	2.39
255.24	2.52
255.619	2.54
255.999	2.55
256.378	2.37
256.758	2.45
257.137	2.35
257.517	2.21
257.896	2.01
258.276	1.93
258.655	1.68
259.034	1.56
259.414	1.41
259.793	1.38
260.172	1.16
260.551	1.13
260.93	1.02
261.309	0.94
261.688	0.87
262.068	0.83
262.447	0.77
262.825	0.87
263.204	0.75
263.583	0.64
263.962	0.48
264.341	0.59
264.72	0.54
265.099	0.7
265.477	0.76
265.856	0.83
266.235	0.91
266.613	0.89
266.992	0.84
267.371	0.89
267.749	1
268.128	0.98
268.506	1
268.884	1.11
269.263	1.03
269.641	0.99
270.02	1
270.398	0.96
270.776	0.99
271.154	0.99
271.533	1.08
271.911	1.11
272.289	1.2
272.667	1.17
273.045	1.2
273.423	1.25
273.801	1.28
274.179	1.28
274.557	1.3
274.935	1.29
275.313	1.34
275.69	1.35
276.068	1.36
276.446	1.31
276.824	1.31
277.201	1.16
277.579	1.12
277.957	1.1
278.334	1.1
278.712	1.07
279.089	1.04
279.467	0.94
279.844	0.93
280.222	0.84
280.599	0.81
280.976	0.81
281.354	0.83
281.731	0.81
282.108	0.79
282.485	0.8
282.863	0.83
283.24	0.85
283.617	0.91
283.994	0.93
284.371	0.97
284.748	1.03
285.125	1.04
285.502	1.06
285.879	1.08
286.256	1.13
286.633	1.19
287.009	1.21
287.386	1.24
287.763	1.29
288.139	1.29
288.516	1.36
288.893	1.4
289.269	1.43
289.646	1.51
290.022	1.55
290.399	1.57
290.775	1.59
291.152	1.64
291.528	1.69
291.904	1.68
292.281	1.71
292.657	1.71
293.033	1.77
293.41	1.83
293.786	1.89
294.162	1.96
294.538	2.03
294.914	2.1
295.29	2.15
295.666	2.23
296.042	2.33
296.418	2.46
296.794	2.56
297.17	2.66
297.546	2.75
297.921	2.85
298.297	2.96
298.673	3.06
299.048	3.2
299.424	3.31
299.8	3.43
300.175	3.57
300.551	3.7
300.926	3.82
301.302	3.96
301.677	4.08
302.053	4.21
302.428	4.33
302.803	4.47
303.179	4.58
303.554	4.72
303.929	4.83
304.304	4.96
304.68	5.04
305.055	5.18
305.43	5.24
305.805	5.39
306.18	5.48
306.555	5.56
306.93	5.63
307.305	5.71
307.679	5.79
308.054	5.85
308.429	5.9
308.804	5.98
309.179	6.04
309.553	6.11
309.928	6.15
310.303	6.2
310.677	6.28
311.052	6.32
311.426	6.4
311.801	6.44
312.175	6.48
312.55	6.55
312.924	6.62
313.298	6.64
313.673	6.69
314.047	6.74
314.421	6.81
314.795	6.83
315.17	6.88
315.544	6.88
315.918	6.93
316.292	7.01
316.666	7.08
317.04	7.13
317.414	7.23
317.788	7.35
318.162	7.47
318.535	7.59
318.909	7.72
319.283	7.88
319.657	7.99
320.03	8.12
320.404	8.24
320.778	8.46
321.151	8.58
321.525	8.74
321.898	8.93
322.272	9.07
322.645	9.23
323.019	9.38
323.392	9.65
323.765	9.89
324.139	10.17
324.512	10.52
324.885	10.86
325.258	11.17
325.632	11.49
326.005	11.75
326.378	11.88
326.751	11.96
327.124	11.99
327.497	11.98
327.87	11.95
328.243	11.91
328.616	11.91
328.988	11.92
329.361	11.89
329.734	11.85
330.107	11.84
330.479	11.87
330.852	11.76
331.225	11.71
331.597	11.66
331.97	11.51
332.342	11.33
332.715	11.18
333.087	11.03
333.46	10.89
333.832	10.76
334.204	10.75
334.577	10.69
334.949	10.64
335.321	10.57
335.693	10.49
336.065	10.38
336.438	10.28
336.81	10.2
337.182	10.05
337.554	9.93
337.926	9.84
338.298	9.68
338.669	9.58
339.041	9.42
339.413	9.32
339.785	9.24
340.157	9.11
340.528	9.01
340.9	8.9
341.272	8.86
341.643	8.81
342.015	8.78
342.386	8.79
342.758	8.83
343.129	8.91
343.501	8.88
343.872	8.89
344.243	8.88
344.615	8.89
344.986	8.79
345.357	8.76
345.728	8.73
346.099	8.72
346.471	8.69
346.842	8.68
347.213	8.6
347.584	8.6
347.955	8.55
348.326	8.48
348.697	8.4
349.067	8.36
349.438	8.36
349.809	8.35
350.18	8.37
350.55	8.37
350.921	8.38
351.292	8.42
351.662	8.44
352.033	8.45
352.403	8.44
352.774	8.41
353.144	8.4
353.515	8.37
353.885	8.36
354.255	8.32
354.626	8.29
354.996	8.27
355.366	8.23
355.736	8.2
356.107	8.18
356.477	8.18
356.847	8.21
357.217	8.21
357.587	8.23
357.957	8.24
358.327	8.24
358.697	8.26
359.066	8.27
359.436	8.25
359.806	8.27
360.176	8.26
360.546	8.27
360.915	8.26
361.285	8.26
361.654	8.26
362.024	8.25
362.393	8.23
362.763	8.23
363.132	8.22
363.502	8.23
363.871	8.23
364.24	8.23
364.61	8.24
364.979	8.25
365.348	8.26
365.717	8.26
366.087	8.26
366.456	8.28
366.825	8.3
367.194	8.3
367.563	8.31
367.932	8.33
368.301	8.35
368.669	8.38
369.038	8.37
369.407	8.39
369.776	8.4
370.145	8.42
370.513	8.45
370.882	8.46
371.25	8.51
371.619	8.53
371.988	8.54
372.356	8.54
372.724	8.57
373.093	8.58
373.461	8.58
373.83	8.62
374.198	8.62
374.566	8.62
374.934	8.63
375.303	8.63
375.671	8.67
376.039	8.7
376.407	8.75
376.775	8.76
377.143	8.8
377.511	8.84
377.879	8.86
378.247	8.91
378.615	8.95
378.982	8.99
379.35	9.03
379.718	9.07
380.086	9.11
380.453	9.13
380.821	9.15
381.188	9.14
381.556	9.15
381.923	9.18
382.291	9.2
382.658	9.23
383.026	9.27
383.393	9.3
383.76	9.32
384.128	9.35
384.495	9.4
384.862	9.44
385.229	9.49
385.596	9.52
385.963	9.56
386.33	9.59
386.697	9.63
387.064	9.63
387.431	9.67
387.798	9.69
388.165	9.73
388.532	9.76
388.899	9.77
389.265	9.79
389.632	9.83
389.999	9.84
390.365	9.88
390.732	9.91
391.098	9.96
391.465	9.97
391.831	9.98
392.198	9.98
392.564	9.97
392.93	10
393.297	10.03
393.663	10.04
394.029	10.07
394.395	10.12
394.762	10.12
395.128	10.14
395.494	10.18
395.86	10.22
396.226	10.26
396.592	10.3
396.958	10.31
397.323	10.34
397.689	10.39
398.055	10.42
398.421	10.42
398.787	10.45
399.152	10.47
399.518	10.5
399.883	10.52
400.249	10.57
400.615	10.61
400.98	10.67
401.345	10.68
401.711	10.69
402.076	10.69
402.442	10.72
402.807	10.75
403.172	10.76
403.537	10.75
403.902	10.78
404.268	10.78
404.633	10.78
404.998	10.75
405.363	10.78
405.728	10.81
406.093	10.84
406.457	10.86
406.822	10.88
407.187	10.9
407.552	10.95
407.917	10.98
408.281	10.99
408.646	11.04
409.011	11.1
409.375	11.11
409.74	11.14
410.104	11.16
410.469	11.18
410.833	11.21
411.197	11.25
411.562	11.27
411.926	11.27
412.29	11.29
412.655	11.29
413.019	11.29
413.383	11.32
413.747	11.32
414.111	11.34
414.475	11.36
414.839	11.38
415.203	11.38
415.567	11.39
415.931	11.42
416.295	11.47
416.658	11.49
417.022	11.52
417.386	11.54
417.749	11.56
418.113	11.56
418.477	11.58
418.84	11.59
419.204	11.61
419.567	11.65
419.931	11.66
420.294	11.65
420.657	11.69
421.021	11.71
421.384	11.72
421.747	11.76
422.11	11.79
422.473	11.79
422.836	11.81
423.199	11.84
423.562	11.85
423.925	11.86
424.288	11.86
424.651	11.85
425.014	11.87
425.377	11.9
425.74	11.9
426.102	11.91
426.465	11.94
426.828	11.97
427.19	11.99
427.553	12
427.916	12
428.278	12.03
428.641	12.02
429.003	12.04
429.365	12.04
429.728	12.06
430.09	12.07
430.452	12.06
430.814	12.05
431.177	12.02
431.539	12.01
431.901	12.03
432.263	12.05
432.625	12.07
432.987	12.06
433.349	12.07
433.711	12.07
434.072	12.07
434.434	12.07
434.796	12.08
435.158	12.13
435.519	12.18
435.881	12.2
436.243	12.2
436.604	12.21
436.966	12.21
437.327	12.22
437.689	12.24
438.05	12.26
438.411	12.27
438.773	12.29
439.134	12.28
439.495	12.25
439.856	12.28
440.218	12.3
440.579	12.32
440.94	12.34
441.301	12.36
441.662	12.38
442.023	12.41
442.384	12.43
442.745	12.44
443.105	12.45
443.466	12.5
443.827	12.48
444.188	12.48
444.548	12.48
444.909	12.5
445.269	12.51
445.63	12.5
445.99	12.5
446.351	12.53
446.711	12.52
447.072	12.54
447.432	12.53
447.792	12.54
448.153	12.55
448.513	12.54
448.873	12.54
449.233	12.54
449.593	12.56
449.953	12.55
450.313	12.54
450.673	12.56
451.033	12.55
451.393	12.56
451.753	12.57
452.113	12.8
452.472	12.78
452.832	12.77
453.192	12.75
453.551	12.72
453.911	12.69
454.271	12.65
454.63	12.64
454.989	12.64
455.349	12.62
455.708	12.62
456.068	12.52
456.427	12.53
456.786	12.54
457.145	12.55
457.505	12.57
457.864	12.6
458.223	12.65
458.582	12.68
458.941	12.7
459.3	12.73
459.659	12.75
460.018	12.75
460.376	12.77
460.735	12.78
461.094	12.79
461.453	12.8
461.811	12.79
462.17	12.81
462.529	12.81
462.887	12.82
463.246	12.82
463.604	12.83
463.963	12.84
464.321	12.73
464.679	12.72
465.038	12.75
465.396	12.76
465.754	12.79
466.112	12.78
466.47	12.8
466.828	12.8
467.186	12.83
467.544	12.85
467.902	12.86
468.26	13.02
468.618	13.06
468.976	13.07
469.334	13.08
469.692	13.08
470.049	13.1
470.407	13.09
470.765	13.12
471.122	13.13
471.48	13.18
471.837	13.21
472.195	13.26
472.552	13.29
472.909	13.32
473.267	13.35
473.624	13.37
473.981	13.4
474.338	13.44
474.696	13.45
475.053	13.46
475.41	13.45
475.767	13.46
476.124	13.46
476.481	13.48
476.838	13.5
477.194	13.5
477.551	13.53
477.908	13.54
478.265	13.56
478.621	13.59
478.978	13.6
479.335	13.63
479.691	13.67
480.048	13.7
480.404	13.71
480.761	13.73
481.117	13.77
481.473	13.78
481.83	13.8
482.186	13.83
482.542	13.85
482.898	13.87
483.255	13.88
483.611	13.91
483.967	13.91
484.323	13.95
484.679	13.96
485.035	13.97
485.39	13.99
485.746	14.02
486.102	14.04
486.458	14.04
486.814	14.06
487.169	14.11
487.525	14.12
487.88	14.14
488.236	14.15
488.591	14.17
488.947	14.18
489.302	14.21
489.658	14.23
490.013	14.24
490.368	14.26
490.723	14.26
491.079	14.26
491.434	14.28
491.789	14.29
492.144	14.31
492.499	14.33
492.854	14.36
493.209	14.38
493.564	14.38
493.919	14.38
494.273	14.4
494.628	14.42
494.983	14.45
495.338	14.42
495.692	14.44
496.047	14.47
496.401	14.45
496.756	14.45
497.11	14.45
497.465	14.46
497.819	14.47
498.173	14.47
498.528	14.49
498.882	14.49
499.236	14.53
499.59	14.55
499.944	14.58
500.298	14.61
500.652	14.63
501.006	14.65
501.36	14.67
501.714	14.68
502.068	14.69
502.422	14.69
502.776	14.72
503.129	14.73
503.483	14.74
503.837	14.75
504.19	14.75
504.544	14.76
504.897	14.76
505.251	14.76
505.604	14.79
505.958	14.8
506.311	14.81
506.664	14.8
507.017	14.79
507.371	14.79
507.724	14.79
508.077	14.78
508.43	14.78
508.783	14.79
509.136	14.81
509.489	14.8
509.842	14.81
510.195	14.83
510.547	14.84
510.9	14.85
511.253	14.84
511.606	14.83
511.958	14.83
512.311	14.84
512.663	14.83
513.016	14.82
513.368	14.83
513.721	14.84
514.073	14.83
514.425	14.85
514.778	14.86
515.13	14.89
515.482	14.92
515.834	14.96
516.186	14.98
516.538	15.02
516.89	15.05
517.242	15.09
517.594	15.11
517.946	15.14
518.298	15.14
518.65	15.17
519.001	15.19
519.353	15.21
519.705	15.21
520.056	15.24
520.408	15.25
520.759	15.25
521.111	15.25
521.462	15.27
521.814	15.29
522.165	15.33
522.516	15.34
522.868	15.36
523.219	15.35
523.57	15.37
523.921	15.36
524.272	15.37
524.623	15.38
524.974	15.39
525.325	15.42
525.676	15.44
526.027	15.46
526.378	15.49
526.728	15.49
527.079	15.53
527.43	15.54
527.78	15.57
528.131	15.6
528.481	15.63
528.832	15.63
529.182	15.64
529.533	15.65
529.883	15.66
530.233	15.67
530.584	15.71
530.934	15.69
531.284	15.7
531.634	15.7
531.984	15.72
532.334	15.72
532.684	15.74
533.034	15.77
533.384	15.8
533.734	15.81
534.084	15.81
534.434	15.79
534.783	15.82
535.133	15.84
535.483	15.9
535.832	15.9
536.182	15.94
536.531	15.95
536.881	15.93
537.23	15.93
537.58	15.93
537.929	15.98
538.278	16.59
538.628	16.59
538.977	16.58
539.326	16.57
539.675	16.58
540.024	16.57
540.373	16.59
540.722	16.61
541.071	16.63
541.42	16.64
541.769	16.64
542.117	16.07
542.466	16.08
542.815	16.09
543.163	16.1
543.512	16.07
543.861	16.09
544.209	16.09
544.558	16.09
544.906	16.09
545.254	16.09
545.603	16.09
545.951	16.08
546.299	16.11
546.647	16.16
546.996	16.17
547.344	16.21
547.692	16.22
548.04	16.25
548.388	16.28
548.736	16.31
549.083	16.32
549.431	16.34
549.779	16.35
550.127	16.35
550.475	16.33
550.822	16.32
551.17	16.33
551.517	16.33
551.865	16.34
552.212	16.38
552.56	16.4
552.907	16.43
553.254	16.43
553.602	16.46
553.949	16.51
554.296	16.51
554.643	16.54
554.99	16.57
555.337	16.63
555.684	16.62
556.031	16.62
556.378	16.62
556.725	16.65
557.072	16.67
557.419	16.74
557.765	16.72
558.112	16.76
558.459	16.82
558.805	16.84
559.152	16.84
559.498	16.87
559.845	16.89
560.191	16.93
560.538	16.95
560.884	16.97
561.23	16.97
561.576	16.99
561.923	17.01
562.269	16.99
562.615	17.03
562.961	17.05
563.307	17.09
563.653	17.14
563.999	17.17
564.344	17.2
564.69	17.26
565.036	17.28
565.382	17.32
565.727	17.37
566.073	17.42
566.419	17.45
566.764	17.48
567.11	17.51
567.455	17.49
567.8	17.51
568.146	17.51
568.491	17.52
568.836	17.5
569.181	17.52
569.527	17.5
569.872	17.51
570.217	17.5
570.562	17.52
570.907	17.53
571.252	17.58
571.597	17.57
571.941	17.63
572.286	17.63
572.631	17.67
572.976	17.68
573.32	17.71
573.665	17.73
574.009	17.75
574.354	17.82
574.698	17.84
575.043	17.86
575.387	17.88
575.731	17.88
576.076	17.88
576.42	17.88
576.764	17.88
577.108	17.88
577.452	17.86
577.796	17.85
578.14	17.84
578.484	17.83
578.828	17.81
579.172	17.8
579.516	17.84
579.86	17.85
580.203	17.86
580.547	17.88
580.891	17.87
581.234	17.85
581.578	17.85
581.921	17.82
582.264	17.79
582.608	17.79
582.951	17.79
583.294	17.83
583.638	17.85
583.981	17.87
584.324	17.9
584.667	17.9
585.01	17.9
585.353	17.91
585.696	17.92
586.039	17.96
586.382	17.98
586.725	18
587.067	18
587.41	18
587.753	18.01
588.095	18.03
588.438	18.04
588.781	18.05
589.123	18.04
589.465	18.04
589.808	18.04
590.15	18.04
590.492	18.04
590.835	18.04
591.177	18.04
591.519	18.02
591.861	18.03
592.203	18.05
592.545	18.06
592.887	18.09
593.229	18.1
593.571	18.12
593.913	18.12
594.254	18.12
594.596	18.14
594.938	18.14
595.279	18.13
595.621	18.11
595.963	18.11
596.304	18.16
596.645	18.19
596.987	18.2
597.328	18.2
597.669	18.24
598.011	18.24
598.352	18.24
598.693	18.27
599.034	18.29
599.375	18.29
599.716	18.28
600.057	18.3
600.398	18.31
600.739	18.32
601.08	18.33
601.42	18.36
601.761	18.38
602.102	18.43
602.442	18.47
602.783	18.5
603.123	18.5
603.464	18.48
603.804	18.46
604.145	18.46
604.485	18.47
604.825	18.46
605.166	18.46
605.506	18.48
605.846	18.52
606.186	18.51
606.526	18.51
606.866	18.52
607.206	18.54
607.546	18.53
607.886	18.53
608.225	18.52
608.565	18.51
608.905	18.49
609.245	18.43
609.584	18.39
609.924	18.33
610.263	18.34
610.603	18.36
610.942	18.38
611.281	18.39
611.621	18.39
611.96	18.41
612.299	18.48
612.638	18.47
612.978	18.47
613.317	18.46
613.656	18.45
613.995	18.44
614.334	18.45
614.672	18.46
615.011	18.45
615.35	18.45
615.689	18.46
616.027	18.47
616.366	18.52
616.705	18.57
617.043	18.58
617.382	18.59
617.72	18.57
618.059	18.55
618.397	18.55
618.735	18.55
619.073	18.54
619.412	18.54
619.75	18.52
620.088	18.5
620.426	18.5
620.764	18.5
621.102	18.52
621.44	18.54
621.778	18.54
622.115	18.53
622.453	18.53
622.791	18.56
623.129	18.55
623.466	18.5
623.804	18.47
624.141	18.43
624.479	18.43
624.816	18.48
625.153	18.48
625.491	18.48
625.828	18.47
626.165	18.47
626.502	18.47
626.84	18.49
627.177	18.52
627.514	18.5
627.851	18.47
628.188	18.5
628.524	18.47
628.861	18.52
629.198	18.56
629.535	18.5
629.871	18.55
630.208	18.59
630.545	18.59
630.881	18.59
631.218	18.65
631.554	18.66
631.89	18.66
632.227	18.73
632.563	18.78
632.899	18.78
633.235	18.82
633.572	18.78
633.908	18.73
634.244	18.75
634.58	18.73
634.916	18.7
635.251	18.78
635.587	18.76
635.923	18.77
636.259	18.75
636.595	18.8
636.93	18.83
637.266	18.88
637.601	18.91
637.937	18.86
638.272	18.89
638.608	18.94
638.943	18.9
639.278	18.92
639.613	18.85
639.949	18.87
640.284	18.79
640.619	18.78
640.954	18.76
641.289	18.82
641.624	18.86
641.959	18.89
642.294	18.79
642.628	18.75
642.963	18.76
643.298	18.75
643.632	18.81
643.967	18.85
644.302	18.85
644.636	18.86
644.971	18.77
645.305	18.8
645.639	18.79
645.974	18.85
646.308	18.83
646.642	18.79
646.976	18.84
647.31	18.76
647.644	18.77
647.978	18.81
648.312	18.81
648.646	18.93
648.98	18.96
649.314	18.98
649.647	19.01
649.981	19.07
650.315	19.07
650.648	19.12
650.982	19.12
651.315	19.01
651.649	19.03
651.982	19.05
652.316	19.02
652.649	19.01
652.982	19.02
653.315	19.01
653.648	19.03
653.982	19.07
654.315	19.08
654.648	19.11
654.981	19.26
655.313	19.22
655.646	19.26
655.979	19.25
656.312	19.28
656.644	19.27
656.977	19.24
657.31	19.17
657.642	19.15
657.975	19.1
658.307	19.06
658.64	19.05
658.972	19.04
659.304	19
659.636	18.97
659.969	18.89
660.301	18.75
660.633	18.81
660.965	18.89
661.297	18.92
661.629	18.97
661.961	18.93
662.292	18.88
662.624	18.92
662.956	18.89
663.288	18.93
663.619	19.04
663.951	19.15
664.282	19.08
664.614	19
664.945	18.95
665.276	18.88
665.608	18.92
665.939	18.93
666.27	18.83
666.601	18.87
666.933	18.82
667.264	18.79
667.595	18.86
667.926	18.83
668.256	18.91
668.587	18.95
668.918	19.01
669.249	19.02
669.58	19.01
669.91	19.15
670.241	19.05
670.571	19.12
670.902	19.04
671.232	19.04
671.563	19.1
671.893	19.08
672.223	19.06
672.554	19.12
672.884	19.17
673.214	19.2
673.544	19.16
673.874	19.18
674.204	19.18
674.534	19.23
674.864	19.19
675.194	19.16
