Data from thigh2_Reflection__0__11-51-44-056.txt Node

Date: Thu Aug 04 11:51:44 AEST 2022
User: kathy
Spectrometer: JAZA2503
Trigger mode: 0
Integration Time (sec): 2.883200E-1
Scans to average: 10
Electric dark correction enabled: true
Nonlinearity correction enabled: true
Boxcar width: 5
XAxis mode: Wavelengths
Number of Pixels in Spectrum: 2048
>>>>>Begin Spectral Data<<<<<
189.467	-35.43
189.852	-76.83
190.237	-3615.3
190.622	-240.66
191.007	-49.01
191.392	-13.51
191.777	103.72
192.162	-203.33
192.546	-122.84
192.931	-105.29
193.316	-12.46
193.701	57.88
194.086	49.7
194.47	65.97
194.855	147.48
195.24	1743.67
195.624	-134.29
196.009	867.81
196.393	629.13
196.778	-3102.01
197.163	-147.56
197.547	-51.65
197.931	-27.22
198.316	-15.28
198.7	6.69
199.085	1.08
199.469	-0.62
199.853	8.97
200.237	20.43
200.622	22.57
201.006	17.75
201.39	13.67
201.774	12.65
202.158	13.68
202.542	9.19
202.926	3.58
203.31	1.01
203.694	3.82
204.078	-4.34
204.462	-5.55
204.846	-1.62
205.23	0.43
205.614	-3.32
205.998	-5.35
206.381	-2.02
206.765	-3.67
207.149	-5.76
207.532	0.21
207.916	-1.79
208.3	3.6
208.683	5.89
209.067	2.13
209.45	2.57
209.834	10.89
210.217	17.05
210.601	18.25
210.984	22.11
211.367	27.22
211.751	29.67
212.134	27.87
212.517	25.85
212.901	26.2
213.284	25.52
213.667	26.41
214.05	17.11
214.433	14.59
214.816	18.41
215.199	18.68
215.582	14.89
215.965	9.17
216.348	9.68
216.731	10.12
217.114	3.6
217.497	1.15
217.88	3.84
218.262	6.9
218.645	3.11
219.028	-4.05
219.411	-7.94
219.793	-7.69
220.176	-3.87
220.559	-3.27
220.941	-5.06
221.324	-2.62
221.706	-1.02
222.089	-2.07
222.471	0.92
222.853	1.6
223.236	5.28
223.618	6.99
224	7.86
224.383	6.38
224.765	7.35
225.147	8.87
225.529	8.75
225.912	8.25
226.294	7.03
226.676	5.85
227.058	4.48
227.44	2.58
227.822	1.69
228.204	1.74
228.586	1.96
228.968	1.29
229.349	0.73
229.731	0.59
230.113	0.43
230.495	0.73
230.877	0.47
231.258	0.89
231.64	1.3
232.022	1.35
232.403	1.06
232.785	1.21
233.166	1.45
233.548	1.58
233.929	1.67
234.311	1.81
234.692	1.33
235.073	1.78
235.455	1.95
235.836	1.45
236.217	1.51
236.599	1.43
236.98	1
237.361	0.58
237.742	0.56
238.123	0.37
238.504	0.31
238.885	0.31
239.266	0.13
239.647	-0.31
240.028	-0.21
240.409	-0.16
240.79	-0.08
241.171	0.04
241.552	0.24
241.933	0.28
242.313	0.31
242.694	0.41
243.075	0.65
243.456	0.52
243.836	0.76
244.217	0.8
244.597	0.84
244.978	1
245.358	1.04
245.739	1.01
246.119	1
246.5	1.06
246.88	1.09
247.26	1
247.641	0.98
248.021	1.01
248.401	1.02
248.781	1.02
249.162	0.95
249.542	0.95
249.922	1.02
250.302	1.06
250.682	0.98
251.062	0.84
251.442	0.77
251.822	0.88
252.202	0.68
252.582	0.63
252.961	0.6
253.341	0.72
253.721	0.71
254.101	0.6
254.48	0.55
254.86	0.6
255.24	0.7
255.619	0.86
255.999	0.72
256.378	0.77
256.758	0.91
257.137	0.88
257.517	0.84
257.896	0.82
258.276	0.91
258.655	0.86
259.034	0.78
259.414	0.7
259.793	0.64
260.172	0.67
260.551	0.65
260.93	0.58
261.309	0.54
261.688	0.51
262.068	0.49
262.447	0.43
262.825	0.42
263.204	0.4
263.583	0.44
263.962	0.44
264.341	0.42
264.72	0.41
265.099	0.33
265.477	0.33
265.856	0.19
266.235	0.21
266.613	0.26
266.992	0.22
267.371	0.28
267.749	0.39
268.128	0.35
268.506	0.37
268.884	0.43
269.263	0.49
269.641	0.51
270.02	0.54
270.398	0.56
270.776	0.61
271.154	0.62
271.533	0.62
271.911	0.5
272.289	0.47
272.667	0.47
273.045	0.37
273.423	0.4
273.801	0.4
274.179	0.39
274.557	0.34
274.935	0.29
275.313	0.23
275.69	0.26
276.068	0.28
276.446	0.31
276.824	0.32
277.201	0.4
277.579	0.39
277.957	0.45
278.334	0.41
278.712	0.41
279.089	0.39
279.467	0.49
279.844	0.49
280.222	0.5
280.599	0.52
280.976	0.5
281.354	0.43
281.731	0.43
282.108	0.42
282.485	0.45
282.863	0.45
283.24	0.44
283.617	0.41
283.994	0.37
284.371	0.39
284.748	0.39
285.125	0.41
285.502	0.41
285.879	0.41
286.256	0.42
286.633	0.46
287.009	0.51
287.386	0.53
287.763	0.57
288.139	0.65
288.516	0.71
288.893	0.73
289.269	0.74
289.646	0.82
290.022	0.84
290.399	0.81
290.775	0.83
291.152	0.83
291.528	0.85
291.904	0.84
292.281	0.81
292.657	0.76
293.033	0.78
293.41	0.82
293.786	0.81
294.162	0.81
294.538	0.89
294.914	0.91
295.29	0.91
295.666	0.96
296.042	0.99
296.418	1.03
296.794	1.1
297.17	1.13
297.546	1.17
297.921	1.21
298.297	1.26
298.673	1.29
299.048	1.33
299.424	1.39
299.8	1.42
300.175	1.48
300.551	1.52
300.926	1.55
301.302	1.61
301.677	1.63
302.053	1.67
302.428	1.69
302.803	1.7
303.179	1.72
303.554	1.77
303.929	1.84
304.304	1.85
304.68	1.91
305.055	1.97
305.43	1.96
305.805	1.99
306.18	2
306.555	2.11
306.93	2.15
307.305	2.2
307.679	2.2
308.054	2.17
308.429	2.17
308.804	2.19
309.179	2.18
309.553	2.21
309.928	2.26
310.303	2.32
310.677	2.32
311.052	2.38
311.426	2.39
311.801	2.44
312.175	2.51
312.55	2.56
312.924	2.57
313.298	2.6
313.673	2.65
314.047	2.66
314.421	2.65
314.795	2.68
315.17	2.68
315.544	2.74
315.918	2.82
316.292	2.85
316.666	2.93
317.04	3.02
317.414	3.15
317.788	3.21
318.162	3.31
318.535	3.45
318.909	3.59
319.283	3.7
319.657	3.8
320.03	3.92
320.404	4.07
320.778	4.27
321.151	4.59
321.525	4.83
321.898	5.06
322.272	5.3
322.645	5.57
323.019	5.78
323.392	6.02
323.765	6.4
324.139	6.75
324.512	7.13
324.885	7.58
325.258	7.99
325.632	8.35
326.005	8.64
326.378	8.86
326.751	8.96
327.124	9.06
327.497	9.08
327.87	9.02
328.243	9.05
328.616	9.06
328.988	9.1
329.361	9.1
329.734	9.14
330.107	9.14
330.479	9.14
330.852	9.13
331.225	9.11
331.597	9.03
331.97	8.94
332.342	8.81
332.715	8.65
333.087	8.52
333.46	8.38
333.832	8.31
334.204	8.26
334.577	8.21
334.949	8.14
335.321	8.1
335.693	8.03
336.065	7.9
336.438	7.82
336.81	7.74
337.182	7.69
337.554	7.57
337.926	7.43
338.298	7.32
338.669	7.12
339.041	6.99
339.413	6.9
339.785	6.81
340.157	6.71
340.528	6.61
340.9	6.54
341.272	6.47
341.643	6.41
342.015	6.42
342.386	6.5
342.758	6.59
343.129	6.66
343.501	6.75
343.872	6.79
344.243	6.78
344.615	6.76
344.986	6.77
345.357	6.74
345.728	6.73
346.099	6.73
346.471	6.7
346.842	6.68
347.213	6.67
347.584	6.63
347.955	6.59
348.326	6.52
348.697	6.43
349.067	6.37
349.438	6.31
349.809	6.3
350.18	6.33
350.55	6.36
350.921	6.39
351.292	6.45
351.662	6.48
352.033	6.5
352.403	6.54
352.774	6.58
353.144	6.58
353.515	6.57
353.885	6.56
354.255	6.55
354.626	6.53
354.996	6.54
355.366	6.52
355.736	6.5
356.107	6.49
356.477	6.47
356.847	6.44
357.217	6.45
357.587	6.47
357.957	6.47
358.327	6.47
358.697	6.49
359.066	6.47
359.436	6.47
359.806	6.47
360.176	6.47
360.546	6.46
360.915	6.43
361.285	6.42
361.654	6.42
362.024	6.42
362.393	6.41
362.763	6.4
363.132	6.41
363.502	6.41
363.871	6.4
364.24	6.39
364.61	6.43
364.979	6.48
365.348	6.49
365.717	6.5
366.087	6.53
366.456	6.57
366.825	6.6
367.194	6.63
367.563	6.66
367.932	6.69
368.301	6.72
368.669	6.74
369.038	6.76
369.407	6.78
369.776	6.79
370.145	6.79
370.513	6.79
370.882	6.77
371.25	6.78
371.619	6.81
371.988	6.84
372.356	6.84
372.724	6.85
373.093	6.86
373.461	6.9
373.83	6.91
374.198	6.94
374.566	6.96
374.934	6.99
375.303	7
375.671	7
376.039	7.02
376.407	7.04
376.775	7.06
377.143	7.08
377.511	7.09
377.879	7.12
378.247	7.17
378.615	7.2
378.982	7.27
379.35	7.31
379.718	7.32
380.086	7.35
380.453	7.4
380.821	7.46
381.188	7.48
381.556	7.52
381.923	7.55
382.291	7.54
382.658	7.55
383.026	7.56
383.393	7.59
383.76	7.63
384.128	7.65
384.495	7.67
384.862	7.68
385.229	7.73
385.596	7.78
385.963	7.84
386.33	7.9
386.697	7.94
387.064	7.98
387.431	7.99
387.798	8.03
388.165	8.07
388.532	8.09
388.899	8.08
389.265	8.08
389.632	8.07
389.999	8.05
390.365	8.05
390.732	8.07
391.098	8.07
391.465	8.1
391.831	8.12
392.198	8.15
392.564	8.16
392.93	8.21
393.297	8.23
393.663	8.26
394.029	8.29
394.395	8.33
394.762	8.36
395.128	8.38
395.494	8.39
395.86	8.42
396.226	8.43
396.592	8.46
396.958	8.47
397.323	8.5
397.689	8.53
398.055	8.57
398.421	8.58
398.787	8.59
399.152	8.62
399.518	8.65
399.883	8.67
400.249	8.7
400.615	8.72
400.98	8.74
401.345	8.77
401.711	8.77
402.076	8.77
402.442	8.79
402.807	8.81
403.172	8.82
403.537	8.83
403.902	8.84
404.268	8.84
404.633	8.85
404.998	8.87
405.363	8.87
405.728	8.88
406.093	8.91
406.457	8.93
406.822	8.94
407.187	8.97
407.552	8.99
407.917	9.01
408.281	9.04
408.646	9.08
409.011	9.11
409.375	9.13
409.74	9.13
410.104	9.14
410.469	9.15
410.833	9.17
411.197	9.15
411.562	9.16
411.926	9.17
412.29	9.17
412.655	9.16
413.019	9.16
413.383	9.17
413.747	9.19
414.111	9.19
414.475	9.22
414.839	9.22
415.203	9.24
415.567	9.26
415.931	9.28
416.295	9.31
416.658	9.32
417.022	9.31
417.386	9.32
417.749	9.32
418.113	9.32
418.477	9.31
418.84	9.34
419.204	9.37
419.567	9.37
419.931	9.35
420.294	9.34
420.657	9.37
421.021	9.4
421.384	9.42
421.747	9.43
422.11	9.44
422.473	9.47
422.836	9.46
423.199	9.46
423.562	9.46
423.925	9.47
424.288	9.47
424.651	9.47
425.014	9.47
425.377	9.48
425.74	9.48
426.102	9.5
426.465	9.51
426.828	9.54
427.19	9.56
427.553	9.59
427.916	9.61
428.278	9.64
428.641	9.64
429.003	9.64
429.365	9.64
429.728	9.66
430.09	9.64
430.452	9.63
430.814	9.62
431.177	9.6
431.539	9.59
431.901	9.59
432.263	9.61
432.625	9.61
432.987	9.63
433.349	9.65
433.711	9.67
434.072	9.7
434.434	9.73
434.796	9.75
435.158	9.81
435.519	9.85
435.881	9.87
436.243	9.89
436.604	9.9
436.966	9.9
437.327	9.91
437.689	9.92
438.05	9.95
438.411	9.95
438.773	9.95
439.134	9.96
439.495	9.97
439.856	9.98
440.218	9.98
440.579	10.03
440.94	10.04
441.301	10.07
441.662	10.08
442.023	10.1
442.384	10.13
442.745	10.15
443.105	10.15
443.466	10.16
443.827	10.16
444.188	10.19
444.548	10.19
444.909	10.24
445.269	10.24
445.63	10.25
445.99	10.25
446.351	10.27
446.711	10.29
447.072	10.31
447.432	10.34
447.792	10.37
448.153	10.39
448.513	10.39
448.873	10.38
449.233	10.39
449.593	10.36
449.953	10.37
450.313	10.36
450.673	10.34
451.033	10.33
451.393	10.33
451.753	10.29
452.113	10.65
452.472	10.64
452.832	10.59
453.192	10.55
453.551	10.53
453.911	10.52
454.271	10.49
454.63	10.48
454.989	10.47
455.349	10.45
455.708	10.45
456.068	10.26
456.427	10.26
456.786	10.28
457.145	10.3
457.505	10.32
457.864	10.33
458.223	10.36
458.582	10.38
458.941	10.41
459.3	10.43
459.659	10.46
460.018	10.46
460.376	10.47
460.735	10.47
461.094	10.47
461.453	10.48
461.811	10.48
462.17	10.47
462.529	10.47
462.887	10.45
463.246	10.44
463.604	10.44
463.963	10.44
464.321	10.53
464.679	10.54
465.038	10.53
465.396	10.54
465.754	10.55
466.112	10.57
466.47	10.58
466.828	10.61
467.186	10.63
467.544	10.62
467.902	10.64
468.26	10.55
468.618	10.57
468.976	10.58
469.334	10.6
469.692	10.6
470.049	10.6
470.407	10.59
470.765	10.58
471.122	10.57
471.48	10.59
471.837	10.6
472.195	10.61
472.552	10.61
472.909	10.63
473.267	10.64
473.624	10.67
473.981	10.67
474.338	10.68
474.696	10.7
475.053	10.73
475.41	10.75
475.767	10.78
476.124	10.8
476.481	10.84
476.838	10.86
477.194	10.88
477.551	10.91
477.908	10.94
478.265	10.98
478.621	11
478.978	11.01
479.335	11.03
479.691	11.05
480.048	11.08
480.404	11.08
480.761	11.1
481.117	11.12
481.473	11.1
481.83	11.1
482.186	11.1
482.542	11.13
482.898	11.15
483.255	11.17
483.611	11.19
483.967	11.2
484.323	11.23
484.679	11.23
485.035	11.24
485.39	11.28
485.746	11.31
486.102	11.33
486.458	11.34
486.814	11.34
487.169	11.36
487.525	11.36
487.88	11.36
488.236	11.35
488.591	11.35
488.947	11.35
489.302	11.35
489.658	11.34
490.013	11.35
490.368	11.33
490.723	11.33
491.079	11.33
491.434	11.33
491.789	11.32
492.144	11.32
492.499	11.33
492.854	11.34
493.209	11.35
493.564	11.35
493.919	11.34
494.273	11.36
494.628	11.36
494.983	11.34
495.338	11.33
495.692	11.34
496.047	11.33
496.401	11.32
496.756	11.3
497.11	11.27
497.465	11.25
497.819	11.23
498.173	11.2
498.528	11.2
498.882	11.2
499.236	11.21
499.59	11.21
499.944	11.22
500.298	11.23
500.652	11.23
501.006	11.25
501.36	11.26
501.714	11.26
502.068	11.27
502.422	11.27
502.776	11.28
503.129	11.28
503.483	11.27
503.837	11.27
504.19	11.26
504.544	11.26
504.897	11.24
505.251	11.2
505.604	11.17
505.958	11.14
506.311	11.11
506.664	11.07
507.017	11.02
507.371	10.99
507.724	10.93
508.077	10.88
508.43	10.84
508.783	10.81
509.136	10.8
509.489	10.78
509.842	10.77
510.195	10.74
510.547	10.72
510.9	10.7
511.253	10.67
511.606	10.64
511.958	10.62
512.311	10.59
512.663	10.53
513.016	10.49
513.368	10.46
513.721	10.44
514.073	10.41
514.425	10.39
514.778	10.37
515.13	10.35
515.482	10.32
515.834	10.3
516.186	10.29
516.538	10.29
516.89	10.29
517.242	10.28
517.594	10.27
517.946	10.26
518.298	10.25
518.65	10.24
519.001	10.22
519.353	10.21
519.705	10.2
520.056	10.17
520.408	10.13
520.759	10.09
521.111	10.04
521.462	10.01
521.814	9.99
522.165	9.96
522.516	9.93
522.868	9.91
523.219	9.86
523.57	9.84
523.921	9.79
524.272	9.76
524.623	9.74
524.974	9.72
525.325	9.69
525.676	9.66
526.027	9.6
526.378	9.55
526.728	9.52
527.079	9.5
527.43	9.47
527.78	9.46
528.131	9.42
528.481	9.37
528.832	9.34
529.182	9.32
529.533	9.3
529.883	9.3
530.233	9.3
530.584	9.27
530.934	9.25
531.284	9.23
531.634	9.19
531.984	9.18
532.334	9.16
532.684	9.11
533.034	9.1
533.384	9.06
533.734	9.05
534.084	8.99
534.434	8.95
534.783	8.91
535.133	8.87
535.483	8.86
535.832	8.84
536.182	8.82
536.531	8.8
536.881	8.76
537.23	8.72
537.58	8.67
537.929	8.66
538.278	9.22
538.628	9.2
538.977	9.16
539.326	9.12
539.675	9.07
540.024	9.03
540.373	9
540.722	8.99
541.071	8.96
541.42	8.94
541.769	8.89
542.117	8.26
542.466	8.22
542.815	8.2
543.163	8.17
543.512	8.15
543.861	8.14
544.209	8.12
544.558	8.08
544.906	8.06
545.254	8.05
545.603	8.03
545.951	8.04
546.299	8.05
546.647	8.07
546.996	8.07
547.344	8.07
547.692	8.04
548.04	8.01
548.388	8.01
548.736	8
549.083	7.97
549.431	7.95
549.779	7.91
550.127	7.86
550.475	7.79
550.822	7.76
551.17	7.72
551.517	7.71
551.865	7.7
552.212	7.66
552.56	7.65
552.907	7.63
553.254	7.61
553.602	7.59
553.949	7.57
554.296	7.55
554.643	7.52
554.99	7.49
555.337	7.44
555.684	7.4
556.031	7.36
556.378	7.31
556.725	7.29
557.072	7.27
557.419	7.24
557.765	7.21
558.112	7.2
558.459	7.17
558.805	7.16
559.152	7.14
559.498	7.12
559.845	7.1
560.191	7.08
560.538	7.04
560.884	7.02
561.23	7
561.576	6.94
561.923	6.9
562.269	6.86
562.615	6.84
562.961	6.81
563.307	6.82
563.653	6.82
563.999	6.78
564.344	6.75
564.69	6.74
565.036	6.74
565.382	6.73
565.727	6.73
566.073	6.72
566.419	6.69
566.764	6.65
567.11	6.6
567.455	6.54
567.8	6.55
568.146	6.52
568.491	6.49
568.836	6.44
569.181	6.44
569.527	6.4
569.872	6.39
570.217	6.36
570.562	6.36
570.907	6.33
571.252	6.34
571.597	6.31
571.941	6.29
572.286	6.27
572.631	6.27
572.976	6.27
573.32	6.24
573.665	6.22
574.009	6.21
574.354	6.2
574.698	6.19
575.043	6.17
575.387	6.16
575.731	6.15
576.076	6.14
576.42	6.13
576.764	6.13
577.108	6.12
577.452	6.11
577.796	6.11
578.14	6.11
578.484	6.09
578.828	6.07
579.172	6.07
579.516	6.06
579.86	6.03
580.203	6.03
580.547	5.97
580.891	5.97
581.234	5.95
581.578	5.95
581.921	5.94
582.264	5.93
582.608	5.91
582.951	5.89
583.294	5.88
583.638	5.88
583.981	5.88
584.324	5.87
584.667	5.87
585.01	5.87
585.353	5.86
585.696	5.86
586.039	5.84
586.382	5.84
586.725	5.84
587.067	5.84
587.41	5.85
587.753	5.85
588.095	5.86
588.438	5.86
588.781	5.86
589.123	5.84
589.465	5.84
589.808	5.82
590.15	5.81
590.492	5.8
590.835	5.78
591.177	5.76
591.519	5.74
591.861	5.72
592.203	5.71
592.545	5.7
592.887	5.69
593.229	5.69
593.571	5.65
593.913	5.63
594.254	5.62
594.596	5.62
594.938	5.6
595.279	5.6
595.621	5.6
595.963	5.6
596.304	5.61
596.645	5.61
596.987	5.61
597.328	5.61
597.669	5.6
598.011	5.61
598.352	5.62
598.693	5.61
599.034	5.61
599.375	5.62
599.716	5.62
600.057	5.61
600.398	5.59
600.739	5.59
601.08	5.58
601.42	5.58
601.761	5.57
602.102	5.57
602.442	5.57
602.783	5.55
603.123	5.54
603.464	5.54
603.804	5.53
604.145	5.5
604.485	5.49
604.825	5.48
605.166	5.48
605.506	5.48
605.846	5.49
606.186	5.52
606.526	5.53
606.866	5.53
607.206	5.52
607.546	5.52
607.886	5.51
608.225	5.49
608.565	5.49
608.905	5.45
609.245	5.44
609.584	5.42
609.924	5.39
610.263	5.37
610.603	5.36
610.942	5.37
611.281	5.37
611.621	5.35
611.96	5.34
612.299	5.35
612.638	5.36
612.978	5.34
613.317	5.33
613.656	5.3
613.995	5.27
614.334	5.24
614.672	5.23
615.011	5.22
615.35	5.2
615.689	5.2
616.027	5.2
616.366	5.23
616.705	5.23
617.043	5.23
617.382	5.22
617.72	5.21
618.059	5.19
618.397	5.17
618.735	5.12
619.073	5.11
619.412	5.11
619.75	5.11
620.088	5.08
620.426	5.08
620.764	5.07
621.102	5.07
621.44	5.05
621.778	5.04
622.115	5.04
622.453	5.05
622.791	5.06
623.129	5.06
623.466	5.07
623.804	5.06
624.141	5.05
624.479	5.03
624.816	5.03
625.153	5.02
625.491	5.02
625.828	5.03
626.165	5.04
626.502	5.03
626.84	5.02
627.177	4.98
627.514	4.95
627.851	4.96
628.188	4.92
628.524	4.91
628.861	4.91
629.198	4.9
629.535	4.92
629.871	4.93
630.208	4.92
630.545	4.94
630.881	4.97
631.218	4.99
631.554	4.95
631.89	4.96
632.227	4.92
632.563	4.91
632.899	4.9
633.235	4.9
633.572	4.89
633.908	4.9
634.244	4.88
634.58	4.82
634.916	4.82
635.251	4.85
635.587	4.83
635.923	4.84
636.259	4.82
636.595	4.8
636.93	4.78
637.266	4.79
637.601	4.72
637.937	4.71
638.272	4.76
638.608	4.72
638.943	4.71
639.278	4.74
639.613	4.69
639.949	4.64
640.284	4.63
640.619	4.61
640.954	4.57
641.289	4.6
641.624	4.64
641.959	4.58
642.294	4.52
642.628	4.54
642.963	4.5
643.298	4.51
643.632	4.62
643.967	4.65
644.302	4.61
644.636	4.62
644.971	4.58
645.305	4.52
645.639	4.51
645.974	4.56
646.308	4.5
646.642	4.49
646.976	4.51
647.31	4.41
647.644	4.4
647.978	4.4
648.312	4.32
648.646	4.35
648.98	4.36
649.314	4.36
649.647	4.33
649.981	4.31
650.315	4.26
650.648	4.22
650.982	4.19
651.315	4.21
651.649	4.19
651.982	4.23
652.316	4.18
652.649	4.15
652.982	4.14
653.315	4.17
653.648	4.27
653.982	4.34
654.315	4.35
654.648	4.33
654.981	4.29
655.313	4.34
655.646	4.37
655.979	4.39
656.312	4.39
656.644	4.38
656.977	4.34
657.31	4.24
657.642	4.19
657.975	4.18
658.307	4.2
658.64	4.2
658.972	4.19
659.304	4.17
659.636	4.17
659.969	4.16
660.301	4.18
660.633	4.21
660.965	4.26
661.297	4.25
661.629	4.26
661.961	4.26
662.292	4.24
662.624	4.24
662.956	4.28
663.288	4.27
663.619	4.28
663.951	4.26
664.282	4.2
664.614	4.14
664.945	4.13
665.276	4.11
665.608	4.12
665.939	4.11
666.27	4.06
666.601	4
666.933	3.94
667.264	3.93
667.595	3.93
667.926	3.96
668.256	3.92
668.587	3.91
668.918	3.94
669.249	3.91
669.58	3.89
669.91	3.87
670.241	3.93
670.571	3.96
670.902	4
671.232	3.91
671.563	3.85
671.893	3.88
672.223	3.84
672.554	3.85
672.884	3.87
673.214	3.9
673.544	4
673.874	3.93
674.204	3.91
674.534	3.81
674.864	3.89
675.194	3.94
675.524	3.99
675.853	4.04
676.183	3.98
676.513	3.98
676.842	3.94
677.172	3.83
677.501	3.86
677.831	3.9
678.16	3.92
678.489	3.93
678.819	3.88
679.148	3.82
679.477	3.78
679.806	3.82
680.135	3.83
680.464	3.86
680.793	3.93
681.122	3.88
681.451	3.83
681.78	3.86
682.108	3.8
682.437	3.83
682.766	3.86
683.094	3.93
683.423	3.85
683.751	3.77
684.08	3.69
684.408	3.65
684.737	3.7
685.065	3.66
685.393	3.64
685.721	3.67
686.049	3.68
686.377	3.71
686.705	3.65
687.033	3.67
687.361	3.76
687.689	3.85
688.017	3.88
688.345	3.83
688.673	3.91
689.0	3.91
689.328	3.89
689.655	3.92
689.983	3.82
690.31	3.81
690.638	3.8
