Data from groin2_Reflection__5__15-30-32-896.txt Node

Date: Thu Aug 04 15:30:32 AEST 2022
User: kathy
Spectrometer: JAZA2503
Trigger mode: 0
Integration Time (sec): 2.439700E-1
Scans to average: 10
Electric dark correction enabled: true
Nonlinearity correction enabled: true
Boxcar width: 5
XAxis mode: Wavelengths
Number of Pixels in Spectrum: 2048
>>>>>Begin Spectral Data<<<<<
189.467	8.07
189.852	10.92
190.237	8.58
190.622	74.16
191.007	35.33
191.392	8.67
191.777	13.34
192.162	7.12
192.546	166.75
192.931	362.38
193.316	156.73
193.701	268.97
194.086	115.01
194.47	42.6
194.855	-2255.54
195.24	-163.62
195.624	135.31
196.009	101.66
196.393	187.85
196.778	588.92
197.163	242.21
197.547	128.44
197.931	83.16
198.316	62.13
198.7	52.81
199.085	53.83
199.469	56.56
199.853	52.1
200.237	45.62
200.622	34.56
201.006	36.36
201.39	27.76
201.774	24.85
202.158	33.27
202.542	38.56
202.926	38.19
203.31	25.75
203.694	19.83
204.078	15.68
204.462	22.31
204.846	22.07
205.23	20.24
205.614	23.35
205.998	28.2
206.381	25.69
206.765	24.4
207.149	25.21
207.532	28.36
207.916	26.05
208.3	27.42
208.683	24.85
209.067	25.65
209.45	18.68
209.834	17
210.217	11.87
210.601	7.86
210.984	9.96
211.367	14.91
211.751	12.78
212.134	14.14
212.517	15.14
212.901	11.74
213.284	13.31
213.667	13.9
214.05	16.26
214.433	15.74
214.816	16.34
215.199	12.43
215.582	5.98
215.965	0.5
216.348	-2.16
216.731	-9.1
217.114	-12.96
217.497	-9.18
217.88	-9.67
218.262	-12.32
218.645	-11.89
219.028	-9.18
219.411	-10.24
219.793	-1.64
220.176	7.43
220.559	12.37
220.941	14.75
221.324	19.92
221.706	20.25
222.089	22.52
222.471	23.16
222.853	21.8
223.236	20.81
223.618	21.57
224	19.18
224.383	16.48
224.765	12.42
225.147	12.3
225.529	10.11
225.912	7.21
226.294	5.09
226.676	4.59
227.058	3.79
227.44	3.5
227.822	3.42
228.204	3.55
228.586	3.62
228.968	3.6
229.349	2.94
229.731	3.01
230.113	2.38
230.495	2.38
230.877	1.95
231.258	2.38
231.64	2.18
232.022	2.06
232.403	1.82
232.785	1.43
233.166	1.3
233.548	1.49
233.929	1.53
234.311	2.45
234.692	2.77
235.073	2.82
235.455	2.86
235.836	3.81
236.217	3.74
236.599	3.65
236.98	4.15
237.361	4.3
237.742	4.32
238.123	3.88
238.504	3.43
238.885	3.51
239.266	3.45
239.647	2.83
240.028	2.12
240.409	1.82
240.79	2
241.171	1.65
241.552	1.72
241.933	1.6
242.313	1.96
242.694	2.22
243.075	2.27
243.456	2.25
243.836	2.49
244.217	2.87
244.597	2.96
244.978	2.86
245.358	2.95
245.739	2.92
246.119	2.93
246.5	2.77
246.88	2.58
247.26	2.45
247.641	2.38
248.021	2.36
248.401	2.14
248.781	2.15
249.162	2.27
249.542	2.25
249.922	2.2
250.302	2.41
250.682	2.3
251.062	2.39
251.442	2.43
251.822	2.53
252.202	2.5
252.582	2.53
252.961	2.72
253.341	2.72
253.721	2.71
254.101	2.68
254.48	2.53
254.86	2.77
255.24	2.92
255.619	2.98
255.999	2.94
256.378	2.85
256.758	2.97
257.137	2.64
257.517	2.42
257.896	2.28
258.276	2.18
258.655	1.89
259.034	1.63
259.414	1.39
259.793	1.3
260.172	1.24
260.551	1.17
260.93	1.01
261.309	0.97
261.688	0.95
262.068	0.99
262.447	1.07
262.825	1.1
263.204	1.04
263.583	0.97
263.962	1.01
264.341	1.17
264.72	1.26
265.099	1.33
265.477	1.44
265.856	1.46
266.235	1.41
266.613	1.32
266.992	1.4
267.371	1.51
267.749	1.77
268.128	1.64
268.506	1.57
268.884	1.61
269.263	1.6
269.641	1.52
270.02	1.49
270.398	1.46
270.776	1.47
271.154	1.47
271.533	1.52
271.911	1.42
272.289	1.42
272.667	1.39
273.045	1.29
273.423	1.25
273.801	1.27
274.179	1.24
274.557	1.31
274.935	1.22
275.313	1.15
275.69	1.15
276.068	1.15
276.446	1.21
276.824	1.08
277.201	1.12
277.579	1.23
277.957	1.22
278.334	1.29
278.712	1.29
279.089	1.36
279.467	1.39
279.844	1.37
280.222	1.28
280.599	1.25
280.976	1.4
281.354	1.4
281.731	1.32
282.108	1.33
282.485	1.25
282.863	1.2
283.24	1.21
283.617	1.23
283.994	1.19
284.371	1.21
284.748	1.25
285.125	1.23
285.502	1.25
285.879	1.28
286.256	1.25
286.633	1.33
287.009	1.39
287.386	1.38
287.763	1.44
288.139	1.47
288.516	1.53
288.893	1.55
289.269	1.6
289.646	1.64
290.022	1.66
290.399	1.7
290.775	1.68
291.152	1.71
291.528	1.78
291.904	1.77
292.281	1.81
292.657	1.86
293.033	1.89
293.41	1.92
293.786	1.96
294.162	2
294.538	2.04
294.914	2.12
295.29	2.14
295.666	2.14
296.042	2.19
296.418	2.25
296.794	2.26
297.17	2.29
297.546	2.31
297.921	2.34
298.297	2.39
298.673	2.44
299.048	2.47
299.424	2.53
299.8	2.6
300.175	2.66
300.551	2.71
300.926	2.78
301.302	2.85
301.677	2.92
302.053	3
302.428	3.05
302.803	3.1
303.179	3.18
303.554	3.22
303.929	3.27
304.304	3.3
304.68	3.32
305.055	3.35
305.43	3.35
305.805	3.41
306.18	3.42
306.555	3.44
306.93	3.49
307.305	3.47
307.679	3.48
308.054	3.48
308.429	3.48
308.804	3.48
309.179	3.51
309.553	3.55
309.928	3.54
310.303	3.56
310.677	3.61
311.052	3.6
311.426	3.64
311.801	3.66
312.175	3.66
312.55	3.76
312.924	3.82
313.298	3.85
313.673	3.86
314.047	3.89
314.421	3.93
314.795	3.95
315.17	4
315.544	4.02
315.918	4.06
316.292	4.16
316.666	4.17
317.04	4.2
317.414	4.23
317.788	4.32
318.162	4.43
318.535	4.51
318.909	4.58
319.283	4.69
319.657	4.74
320.03	4.87
320.404	4.94
320.778	5.13
321.151	5.34
321.525	5.64
321.898	5.92
322.272	6.17
322.645	6.51
323.019	6.83
323.392	7.18
323.765	7.65
324.139	8.1
324.512	8.59
324.885	9.13
325.258	9.55
325.632	9.88
326.005	10.17
326.378	10.4
326.751	10.55
327.124	10.68
327.497	10.73
327.87	10.8
328.243	10.84
328.616	10.93
328.988	10.99
329.361	11.03
329.734	11.11
330.107	11.04
330.479	10.98
330.852	10.86
331.225	10.83
331.597	10.75
331.97	10.59
332.342	10.54
332.715	10.5
333.087	10.37
333.46	10.23
333.832	10.11
334.204	10.04
334.577	9.93
334.949	9.86
335.321	9.83
335.693	9.78
336.065	9.71
336.438	9.62
336.81	9.53
337.182	9.46
337.554	9.33
337.926	9.3
338.298	9.2
338.669	9.14
339.041	9.01
339.413	8.93
339.785	8.86
340.157	8.77
340.528	8.71
340.9	8.65
341.272	8.6
341.643	8.54
342.015	8.54
342.386	8.58
342.758	8.63
343.129	8.73
343.501	8.79
343.872	8.79
344.243	8.77
344.615	8.74
344.986	8.66
345.357	8.63
345.728	8.61
346.099	8.61
346.471	8.57
346.842	8.55
347.213	8.5
347.584	8.47
347.955	8.44
348.326	8.43
348.697	8.38
349.067	8.4
349.438	8.38
349.809	8.44
350.18	8.49
350.55	8.49
350.921	8.53
351.292	8.57
351.662	8.59
352.033	8.57
352.403	8.56
352.774	8.52
353.144	8.49
353.515	8.47
353.885	8.46
354.255	8.42
354.626	8.39
354.996	8.36
355.366	8.32
355.736	8.3
356.107	8.31
356.477	8.32
356.847	8.37
357.217	8.37
357.587	8.37
357.957	8.36
358.327	8.36
358.697	8.35
359.066	8.35
359.436	8.34
359.806	8.34
360.176	8.33
360.546	8.32
360.915	8.32
361.285	8.32
361.654	8.33
362.024	8.31
362.393	8.31
362.763	8.33
363.132	8.32
363.502	8.32
363.871	8.34
364.24	8.32
364.61	8.31
364.979	8.3
365.348	8.31
365.717	8.29
366.087	8.31
366.456	8.31
366.825	8.33
367.194	8.37
367.563	8.38
367.932	8.38
368.301	8.41
368.669	8.45
369.038	8.47
369.407	8.46
369.776	8.44
370.145	8.45
370.513	8.46
370.882	8.46
371.25	8.48
371.619	8.47
371.988	8.46
372.356	8.45
372.724	8.44
373.093	8.42
373.461	8.42
373.83	8.45
374.198	8.41
374.566	8.36
374.934	8.32
375.303	8.34
375.671	8.32
376.039	8.32
376.407	8.35
376.775	8.34
377.143	8.37
377.511	8.37
377.879	8.38
378.247	8.41
378.615	8.46
378.982	8.49
379.35	8.46
379.718	8.49
380.086	8.5
380.453	8.51
380.821	8.5
381.188	8.48
381.556	8.48
381.923	8.47
382.291	8.48
382.658	8.46
383.026	8.47
383.393	8.48
383.76	8.5
384.128	8.5
384.495	8.5
384.862	8.5
385.229	8.5
385.596	8.49
385.963	8.5
386.33	8.48
386.697	8.48
387.064	8.46
387.431	8.47
387.798	8.45
388.165	8.43
388.532	8.42
388.899	8.42
389.265	8.43
389.632	8.43
389.999	8.43
390.365	8.46
390.732	8.46
391.098	8.47
391.465	8.46
391.831	8.48
392.198	8.49
392.564	8.48
392.93	8.49
393.297	8.48
393.663	8.5
394.029	8.51
394.395	8.5
394.762	8.53
395.128	8.54
395.494	8.55
395.86	8.57
396.226	8.6
396.592	8.62
396.958	8.65
397.323	8.66
397.689	8.7
398.055	8.74
398.421	8.77
398.787	8.78
399.152	8.8
399.518	8.83
399.883	8.81
400.249	8.83
400.615	8.83
400.98	8.82
401.345	8.84
401.711	8.85
402.076	8.84
402.442	8.85
402.807	8.87
403.172	8.86
403.537	8.86
403.902	8.87
404.268	8.86
404.633	8.87
404.998	8.88
405.363	8.87
405.728	8.85
406.093	8.86
406.457	8.86
406.822	8.86
407.187	8.89
407.552	8.92
407.917	8.94
408.281	8.95
408.646	8.98
409.011	9.01
409.375	9.04
409.74	9.03
410.104	9.05
410.469	9.05
410.833	9.05
411.197	9.05
411.562	9.04
411.926	9.04
412.29	9.05
412.655	9.06
413.019	9.05
413.383	9.05
413.747	9.07
414.111	9.08
414.475	9.1
414.839	9.1
415.203	9.11
415.567	9.13
415.931	9.14
416.295	9.17
416.658	9.18
417.022	9.19
417.386	9.21
417.749	9.21
418.113	9.2
418.477	9.21
418.84	9.21
419.204	9.22
419.567	9.22
419.931	9.23
420.294	9.24
420.657	9.25
421.021	9.26
421.384	9.29
421.747	9.32
422.11	9.34
422.473	9.36
422.836	9.38
423.199	9.39
423.562	9.44
423.925	9.43
424.288	9.43
424.651	9.44
425.014	9.47
425.377	9.48
425.74	9.49
426.102	9.5
426.465	9.53
426.828	9.56
427.19	9.59
427.553	9.59
427.916	9.6
428.278	9.62
428.641	9.63
429.003	9.62
429.365	9.61
429.728	9.61
430.09	9.62
430.452	9.61
430.814	9.59
431.177	9.57
431.539	9.57
431.901	9.58
432.263	9.6
432.625	9.62
432.987	9.64
433.349	9.66
433.711	9.68
434.072	9.7
434.434	9.74
434.796	9.77
435.158	9.82
435.519	9.86
435.881	9.88
436.243	9.87
436.604	9.87
436.966	9.88
437.327	9.88
437.689	9.89
438.05	9.89
438.411	9.9
438.773	9.91
439.134	9.91
439.495	9.91
439.856	9.92
440.218	9.94
440.579	9.93
440.94	9.94
441.301	9.94
441.662	9.98
442.023	9.97
442.384	9.98
442.745	9.96
443.105	9.96
443.466	9.98
443.827	9.97
444.188	9.97
444.548	9.98
444.909	10.01
445.269	10.02
445.63	10
445.99	10.03
446.351	10.04
446.711	10.05
447.072	10.05
447.432	10.04
447.792	10.04
448.153	10.05
448.513	10.08
448.873	10.09
449.233	10.1
449.593	10.09
449.953	10.09
450.313	10.08
450.673	10.09
451.033	10.12
451.393	10.14
451.753	10.16
452.113	10.62
452.472	10.63
452.832	10.61
453.192	10.56
453.551	10.53
453.911	10.5
454.271	10.43
454.63	10.39
454.989	10.34
455.349	10.3
455.708	10.28
456.068	10.03
456.427	10.02
456.786	10.03
457.145	10.05
457.505	10.08
457.864	10.12
458.223	10.17
458.582	10.23
458.941	10.29
459.3	10.34
459.659	10.36
460.018	10.4
460.376	10.43
460.735	10.46
461.094	10.47
461.453	10.48
461.811	10.47
462.17	10.47
462.529	10.45
462.887	10.45
463.246	10.45
463.604	10.46
463.963	10.46
464.321	10.51
464.679	10.51
465.038	10.52
465.396	10.53
465.754	10.55
466.112	10.57
466.47	10.61
466.828	10.64
467.186	10.65
467.544	10.66
467.902	10.69
468.26	10.63
468.618	10.63
468.976	10.63
469.334	10.63
469.692	10.62
470.049	10.6
470.407	10.57
470.765	10.55
471.122	10.55
471.48	10.58
471.837	10.58
472.195	10.6
472.552	10.61
472.909	10.64
473.267	10.67
473.624	10.69
473.981	10.71
474.338	10.72
474.696	10.71
475.053	10.71
475.41	10.68
475.767	10.67
476.124	10.66
476.481	10.66
476.838	10.63
477.194	10.62
477.551	10.63
477.908	10.62
478.265	10.62
478.621	10.64
478.978	10.64
479.335	10.66
479.691	10.68
480.048	10.67
480.404	10.67
480.761	10.67
481.117	10.65
481.473	10.64
481.83	10.64
482.186	10.64
482.542	10.62
482.898	10.59
483.255	10.57
483.611	10.56
483.967	10.56
484.323	10.57
484.679	10.57
485.035	10.59
485.39	10.6
485.746	10.6
486.102	10.59
486.458	10.59
486.814	10.61
487.169	10.63
487.525	10.63
487.88	10.63
488.236	10.6
488.591	10.59
488.947	10.56
489.302	10.55
489.658	10.54
490.013	10.52
490.368	10.51
490.723	10.49
491.079	10.46
491.434	10.47
491.789	10.46
492.144	10.47
492.499	10.47
492.854	10.49
493.209	10.5
493.564	10.51
493.919	10.53
494.273	10.56
494.628	10.57
494.983	10.58
495.338	10.55
495.692	10.55
496.047	10.54
496.401	10.51
496.756	10.46
497.11	10.42
497.465	10.39
497.819	10.36
498.173	10.31
498.528	10.3
498.882	10.27
499.236	10.27
499.59	10.26
499.944	10.26
500.298	10.27
500.652	10.27
501.006	10.28
501.36	10.28
501.714	10.28
502.068	10.3
502.422	10.3
502.776	10.32
503.129	10.33
503.483	10.34
503.837	10.36
504.19	10.38
504.544	10.39
504.897	10.39
505.251	10.38
505.604	10.38
505.958	10.37
506.311	10.36
506.664	10.35
507.017	10.31
507.371	10.28
507.724	10.24
508.077	10.22
508.43	10.21
508.783	10.19
509.136	10.21
509.489	10.19
509.842	10.18
510.195	10.17
510.547	10.15
510.9	10.15
511.253	10.13
511.606	10.11
511.958	10.07
512.311	10.03
512.663	9.99
513.016	9.94
513.368	9.92
513.721	9.9
514.073	9.87
514.425	9.85
514.778	9.83
515.13	9.82
515.482	9.81
515.834	9.81
516.186	9.81
516.538	9.82
516.89	9.85
517.242	9.86
517.594	9.86
517.946	9.88
518.298	9.88
518.65	9.89
519.001	9.89
519.353	9.89
519.705	9.88
520.056	9.86
520.408	9.86
520.759	9.82
521.111	9.8
521.462	9.79
521.814	9.76
522.165	9.76
522.516	9.73
522.868	9.72
523.219	9.7
523.57	9.68
523.921	9.65
524.272	9.62
524.623	9.61
524.974	9.57
525.325	9.53
525.676	9.5
526.027	9.47
526.378	9.45
526.728	9.42
527.079	9.42
527.43	9.41
527.78	9.39
528.131	9.37
528.481	9.36
528.832	9.34
529.182	9.35
529.533	9.33
529.883	9.3
530.233	9.3
530.584	9.28
530.934	9.24
531.284	9.18
531.634	9.14
531.984	9.13
532.334	9.08
532.684	9.06
533.034	9.03
533.384	9.02
533.734	9.01
534.084	8.99
534.434	8.94
534.783	8.9
535.133	8.89
535.483	8.89
535.832	8.87
536.182	8.86
536.531	8.83
536.881	8.79
537.23	8.78
537.58	8.75
537.929	8.73
538.278	10.11
538.628	10.13
538.977	10.13
539.326	10.11
539.675	10.09
540.024	10.06
540.373	10.04
540.722	10.03
541.071	10
541.42	9.99
541.769	9.97
542.117	8.57
542.466	8.52
542.815	8.48
543.163	8.43
543.512	8.38
543.861	8.35
544.209	8.33
544.558	8.31
544.906	8.29
545.254	8.28
545.603	8.26
545.951	8.22
546.299	8.23
546.647	8.27
546.996	8.26
547.344	8.27
547.692	8.27
548.04	8.27
548.388	8.24
548.736	8.21
549.083	8.17
549.431	8.13
549.779	8.12
550.127	8.05
550.475	7.98
550.822	7.92
551.17	7.89
551.517	7.88
551.865	7.83
552.212	7.82
552.56	7.82
552.907	7.82
553.254	7.82
553.602	7.81
553.949	7.8
554.296	7.77
554.643	7.76
554.99	7.73
555.337	7.7
555.684	7.68
556.031	7.65
556.378	7.61
556.725	7.58
557.072	7.53
557.419	7.51
557.765	7.49
558.112	7.48
558.459	7.47
558.805	7.46
559.152	7.41
559.498	7.42
559.845	7.39
560.191	7.37
560.538	7.36
560.884	7.35
561.23	7.29
561.576	7.28
561.923	7.23
562.269	7.2
562.615	7.19
562.961	7.17
563.307	7.12
563.653	7.11
563.999	7.1
564.344	7.07
564.69	7.04
565.036	7.05
565.382	6.99
565.727	6.99
566.073	6.98
566.419	6.96
566.764	6.97
567.11	6.96
567.455	6.95
567.8	6.95
568.146	6.93
568.491	6.92
568.836	6.88
569.181	6.86
569.527	6.82
569.872	6.75
570.217	6.68
570.562	6.64
570.907	6.63
571.252	6.6
571.597	6.55
571.941	6.52
572.286	6.51
572.631	6.5
572.976	6.5
573.32	6.51
573.665	6.52
574.009	6.54
574.354	6.56
574.698	6.59
575.043	6.59
575.387	6.6
575.731	6.6
576.076	6.59
576.42	6.59
576.764	6.57
577.108	6.56
577.452	6.53
577.796	6.51
578.14	6.48
578.484	6.47
578.828	6.44
579.172	6.43
579.516	6.42
579.86	6.41
580.203	6.41
580.547	6.41
580.891	6.38
581.234	6.35
581.578	6.33
581.921	6.29
582.264	6.27
582.608	6.25
582.951	6.26
583.294	6.26
583.638	6.26
583.981	6.25
584.324	6.23
584.667	6.22
585.01	6.23
585.353	6.23
585.696	6.22
586.039	6.21
586.382	6.21
586.725	6.2
587.067	6.2
587.41	6.19
587.753	6.18
588.095	6.17
588.438	6.17
588.781	6.16
589.123	6.14
589.465	6.11
589.808	6.11
590.15	6.11
590.492	6.09
590.835	6.07
591.177	6.06
591.519	6.04
591.861	6.04
592.203	6.06
592.545	6.05
592.887	6.04
593.229	6.03
593.571	6.03
593.913	6.03
594.254	6.02
594.596	6
594.938	6
595.279	5.99
595.621	5.98
595.963	5.97
596.304	5.95
596.645	5.96
596.987	5.96
597.328	5.96
597.669	5.95
598.011	5.94
598.352	5.92
598.693	5.91
599.034	5.89
599.375	5.88
599.716	5.86
600.057	5.86
600.398	5.86
600.739	5.86
601.08	5.87
601.42	5.87
601.761	5.88
602.102	5.89
602.442	5.92
602.783	5.9
603.123	5.9
603.464	5.88
603.804	5.87
604.145	5.86
604.485	5.83
604.825	5.82
605.166	5.79
605.506	5.81
605.846	5.82
606.186	5.83
606.526	5.84
606.866	5.83
607.206	5.83
607.546	5.82
607.886	5.79
608.225	5.79
608.565	5.79
608.905	5.77
609.245	5.75
609.584	5.74
609.924	5.7
610.263	5.71
610.603	5.72
610.942	5.73
611.281	5.74
611.621	5.75
611.96	5.77
612.299	5.77
612.638	5.79
612.978	5.79
613.317	5.77
613.656	5.78
613.995	5.78
614.334	5.78
614.672	5.78
615.011	5.77
615.35	5.73
615.689	5.72
616.027	5.69
616.366	5.68
616.705	5.68
617.043	5.66
617.382	5.65
617.72	5.61
618.059	5.6
618.397	5.6
618.735	5.58
619.073	5.54
619.412	5.52
619.75	5.51
620.088	5.48
620.426	5.43
620.764	5.42
621.102	5.38
621.44	5.37
621.778	5.33
622.115	5.3
622.453	5.3
622.791	5.33
623.129	5.29
623.466	5.3
623.804	5.3
624.141	5.28
624.479	5.27
624.816	5.27
625.153	5.24
625.491	5.24
625.828	5.22
626.165	5.21
626.502	5.21
626.84	5.21
627.177	5.19
627.514	5.16
627.851	5.14
628.188	5.13
628.524	5.06
628.861	5.06
629.198	5.03
629.535	4.97
629.871	4.96
630.208	4.99
630.545	4.98
630.881	4.96
631.218	5
631.554	4.99
631.89	4.98
632.227	5.02
632.563	5.04
632.899	5.05
633.235	5.03
633.572	5.03
633.908	4.97
634.244	4.98
634.58	5
634.916	5
635.251	4.99
635.587	5.01
635.923	4.99
636.259	4.97
636.595	4.96
636.93	5.02
637.266	5.03
637.601	5.04
637.937	4.98
638.272	4.94
638.608	4.88
638.943	4.88
639.278	4.85
639.613	4.81
639.949	4.79
640.284	4.77
640.619	4.76
640.954	4.75
641.289	4.71
641.624	4.71
641.959	4.76
642.294	4.75
642.628	4.7
642.963	4.74
643.298	4.74
643.632	4.83
643.967	4.82
644.302	4.79
644.636	4.81
644.971	4.79
645.305	4.79
645.639	4.72
645.974	4.72
646.308	4.74
646.642	4.69
646.976	4.71
647.31	4.58
647.644	4.63
647.978	4.6
648.312	4.58
648.646	4.62
648.98	4.68
649.314	4.69
649.647	4.67
649.981	4.57
650.315	4.53
650.648	4.48
650.982	4.49
651.315	4.4
651.649	4.38
651.982	4.34
652.316	4.36
652.649	4.35
652.982	4.37
653.315	4.35
653.648	4.45
653.982	4.48
654.315	4.5
654.648	4.5
654.981	4.56
655.313	4.55
655.646	4.59
655.979	4.56
656.312	4.53
656.644	4.52
656.977	4.53
657.31	4.44
657.642	4.39
657.975	4.4
658.307	4.41
658.64	4.35
658.972	4.35
659.304	4.36
659.636	4.33
659.969	4.27
660.301	4.15
660.633	4.14
660.965	4.17
661.297	4.25
661.629	4.23
661.961	4.17
662.292	4.22
662.624	4.21
662.956	4.2
663.288	4.25
663.619	4.28
663.951	4.35
664.282	4.35
664.614	4.32
664.945	4.26
665.276	4.26
665.608	4.22
665.939	4.17
666.27	4.12
666.601	4.07
666.933	4
667.264	4
667.595	4.04
667.926	4.01
668.256	3.96
668.587	3.99
668.918	4.01
669.249	4.04
669.58	4.06
669.91	4.09
670.241	4.03
670.571	4.05
670.902	3.98
671.232	4
671.563	4.05
671.893	4.1
672.223	4.06
672.554	4.01
672.884	4.05
673.214	4.04
673.544	4.05
673.874	4.08
674.204	4.16
674.534	4.24
674.864	4.26
675.194	4.27
675.524	4.27
675.853	4.36
676.183	4.35
676.513	4.36
676.842	4.33
677.172	4.36
677.501	4.37
677.831	4.25
678.16	4.2
678.489	4.1
678.819	4.11
679.148	4.14
679.477	4.11
679.806	4.12
680.135	4.02
680.464	4.02
680.793	3.98
681.122	4.02
681.451	4.02
681.78	3.97
682.108	4.01
682.437	3.93
682.766	3.85
683.094	3.78
683.423	3.74
683.751	3.81
684.08	3.74
684.408	3.73
684.737	3.69
685.065	3.62
685.393	3.72
685.721	3.65
686.049	3.67
686.377	3.63
686.705	3.56
687.033	3.59
687.361	3.47
687.689	3.54
688.017	3.61
688.345	3.61
688.673	3.68
689.0	3.62
689.328	3.69
689.655	3.73
689.983	3.87
690.31	3.97
690.638	4
